Crystal angle	X-ray (ID 01) / Impulse Imp
?_c/°	Imp/# / s

6.0	327
6.1	253
6.2	247
6.3	200
6.4	187
6.5	157
6.6	135
6.7	135
6.8	118
6.9	142
7.0	169
7.1	181
7.2	164
7.3	164
7.4	161
7.5	140
7.6	115
7.7	119
7.8	108
7.9	103
8.0	86
8.1	82
8.2	80
8.3	74
8.4	65
8.5	56
8.6	52
8.7	52
8.8	48
8.9	44
9.0	42
9.1	38
9.2	28
9.3	26
9.4	28
9.5	22
9.6	18
9.7	16
9.8	14
9.9	16
10.0	20
10.1	15
10.2	15
10.3	17
10.4	16
10.5	14
10.6	14
10.7	15
10.8	15
10.9	12
11.0	12
11.1	11
11.2	15
11.3	8
11.4	10
11.5	10
11.6	7
11.7	11
11.8	7
11.9	11
12.0	5
12.1	6
12.2	9
12.3	5
12.4	5
12.5	10
12.6	4
12.7	8
12.8	6
12.9	9
13.0	3
13.1	5
13.2	12
13.3	7
13.4	4
13.5	6
13.6	8
13.7	4
13.8	3
13.9	6
14.0	13
14.1	10
14.2	10
14.3	11
14.4	14
14.5	16
14.6	12
14.7	16
14.8	11
14.9	12
15.0	12
15.1	14
15.2	12
15.3	15
15.4	14
15.5	13
15.6	10
15.7	13
15.8	13
15.9	9
16.0	10
16.1	11
16.2	12
16.3	12
16.4	9
16.5	5
16.6	9
16.7	9
16.8	9
16.9	8
17.0	7
17.1	7
17.2	8
17.3	8
17.4	4
17.5	8
17.6	6
17.7	3
17.8	2
17.9	6
18.0	4
18.1	10
18.2	7
18.3	6
18.4	6
18.5	5
18.6	3
18.7	3
18.8	7
18.9	4
19.0	5
19.1	5
19.2	3
19.3	6
19.4	4
19.5	5
19.6	4
19.7	4
19.8	8
19.9	3
20.0	4
20.1	4
20.2	4
20.3	6
20.4	3
20.5	4
20.6	5
20.7	4
20.8	3
20.9	4
21.0	3
21.1	3
21.2	3
21.3	5
21.4	4
21.5	4
21.6	6
21.7	5
21.8	6
21.9	4
22.0	4
22.1	6
22.2	4
22.3	7
22.4	5
22.5	7
22.6	5
22.7	3
22.8	4
22.9	3
23.0	6
23.1	6
23.2	6
23.3	5
23.4	8
23.5	4
23.6	2
23.7	4
23.8	5
23.9	6
24.0	2
24.1	3
24.2	3
24.3	4
24.4	7
24.5	3
24.6	6
24.7	6
24.8	4
24.9	4
25.0	4
