X-ray (ID 01) / Crystal angle ?_c	X-ray (ID 01) / Impulse Imp
?_c/°	Imp/# / s

6.0	598
6.1	622
6.2	622
6.3	618
6.4	611
6.5	672
6.6	639
6.7	646
6.8	680
6.9	660
7.0	686
7.1	694
7.2	708
7.3	718
7.4	734
7.5	730
7.6	741
7.7	756
7.8	762
7.9	759
8.0	769
8.1	764
8.2	750
8.3	797
8.4	799
8.5	835
8.6	783
8.7	810
8.8	812
8.9	831
9.0	779
9.1	819
9.2	801
9.3	820
9.4	811
9.5	848
9.6	796
9.7	820
9.8	818
9.9	827
10.0	815
10.1	861
10.2	851
10.3	812
10.4	830
10.5	832
10.6	857
10.7	838
10.8	862
10.9	840
11.0	893
11.1	818
11.2	855
11.3	828
11.4	843
11.5	834
11.6	786
11.7	758
11.8	786
11.9	727
12.0	738
12.1	718
12.2	754
12.3	730
12.4	712
12.5	700
12.6	741
12.7	707
12.8	707
12.9	748
13.0	729
13.1	697
13.2	667
13.3	682
13.4	653
13.5	627
13.6	609
13.7	579
13.8	513
13.9	544
14.0	521
14.1	511
14.2	526
14.3	519
14.4	536
14.5	472
14.6	481
14.7	461
14.8	484
14.9	471
15.0	448
15.1	454
15.2	490
15.3	440
15.4	449
15.5	410
15.6	426
15.7	415
15.8	427
15.9	416
16.0	420
16.1	403
16.2	400
16.3	386
16.4	381
16.5	363
16.6	388
16.7	395
16.8	374
16.9	354
17.0	338
17.1	338
17.2	332
17.3	330
17.4	333
17.5	354
17.6	335
17.7	322
17.8	332
17.9	344
18.0	319
18.1	322
18.2	289
18.3	320
18.4	286
18.5	269
18.6	310
18.7	314
18.8	308
18.9	314
19.0	312
19.1	287
19.2	286
19.3	287
19.4	290
19.5	282
19.6	295
19.7	301
19.8	349
19.9	369
20.0	479
20.1	739
20.2	1735
20.3	3562
20.4	2509
20.5	2918
20.6	1515
20.7	734
20.8	532
20.9	444
21.0	427
21.1	386
21.2	364
21.3	362
21.4	320
21.5	353
21.6	407
21.7	388
21.8	462
21.9	499
22.0	571
22.1	672
22.2	843
22.3	1135
22.4	2260
22.5	6286
22.6	11354
22.7	9434
22.8	9060
22.9	3969
23.0	1488
23.1	814
23.2	479
23.3	358
23.4	323
23.5	320
23.6	283
23.7	255
23.8	253
23.9	269
24.0	220
24.1	231
24.2	230
24.3	218
24.4	212
24.5	226
24.6	223
24.7	221
24.8	195
24.9	204
25.0	207
