Crystal angle	X-ray (ID 01) / Impulse Imp
?_c/°	Imp/# / s

6.0	7038
6.1	6298
6.2	5782
6.3	5252
6.4	4851
6.5	4513
6.6	4295
6.7	3947
6.8	3643
6.9	3422
7.0	3053
7.1	2855
7.2	2592
7.3	2390
7.4	2210
7.5	2226
7.6	2061
7.7	2040
7.8	2042
7.9	2059
8.0	2004
8.1	1961
8.2	1934
8.3	1931
8.4	1917
8.5	1911
8.6	1865
8.7	1829
8.8	1825
8.9	1871
9.0	1820
9.1	1783
9.2	1786
9.3	1762
9.4	1738
9.5	1730
9.6	1691
9.7	1760
9.8	1719
9.9	1673
10.0	1677
10.1	1656
10.2	1652
10.3	1656
10.4	1666
10.5	1698
10.6	1673
10.7	1621
10.8	1611
10.9	1618
11.0	1623
11.1	1619
11.2	1578
11.3	1640
11.4	1573
11.5	1520
11.6	1507
11.7	1501
11.8	1494
11.9	1450
12.0	1440
12.1	1395
12.2	1427
12.3	1355
12.4	1420
12.5	1386
12.6	1308
12.7	1301
12.8	1306
12.9	1297
13.0	1286
13.1	1254
13.2	1262
13.3	1177
13.4	1207
13.5	1148
13.6	1047
13.7	1024
13.8	1040
13.9	1000
14.0	993
14.1	931
14.2	954
14.3	927
14.4	930
14.5	905
14.6	912
14.7	873
14.8	877
14.9	886
15.0	853
15.1	854
15.2	852
15.3	832
15.4	830
15.5	785
15.6	819
15.7	786
15.8	823
15.9	794
16.0	796
16.1	766
16.2	749
16.3	750
16.4	731
16.5	689
16.6	727
16.7	685
16.8	703
16.9	704
17.0	667
17.1	661
17.2	663
17.3	650
17.4	644
17.5	619
17.6	681
17.7	662
17.8	670
17.9	657
18.0	665
18.1	584
18.2	626
18.3	610
18.4	589
18.5	589
18.6	580
18.7	581
18.8	579
18.9	630
19.0	606
19.1	577
19.2	586
19.3	577
19.4	589
19.5	632
19.6	632
19.7	725
19.8	790
19.9	786
20.0	899
20.1	1248
20.2	2612
20.3	5076
20.4	3852
20.5	4359
20.6	2314
20.7	1284
20.8	977
20.9	825
21.0	787
21.1	747
21.2	710
21.3	714
21.4	692
21.5	722
21.6	818
21.7	850
21.8	973
21.9	1139
22.0	1382
22.1	1422
22.2	1592
22.3	2015
22.4	3374
22.5	9407
22.6	14918
22.7	13554
22.8	13090
22.9	5727
23.0	2476
23.1	1543
23.2	1072
23.3	834
23.4	699
23.5	609
23.6	547
23.7	531
23.8	514
23.9	509
24.0	495
24.1	468
24.2	465
24.3	447
24.4	443
24.5	455
24.6	421
24.7	437
24.8	402
24.9	414
25.0	383
