Crystal angle	X-ray (ID 01) / Impulse Imp
?_c/°	Imp/# / s

6.0	4815
6.1	4367
6.2	3875
6.3	3557
6.4	3277
6.5	3062
6.6	2790
6.7	2625
6.8	2438
6.9	2153
7.0	1964
7.1	1800
7.2	1576
7.3	1419
7.4	1261
7.5	1217
7.6	1114
7.7	1069
7.8	1046
7.9	986
8.0	931
8.1	916
8.2	856
8.3	819
8.4	817
8.5	755
8.6	751
8.7	717
8.8	674
8.9	704
9.0	626
9.1	607
9.2	620
9.3	552
9.4	541
9.5	519
9.6	524
9.7	490
9.8	475
9.9	444
10.0	457
10.1	438
10.2	429
10.3	433
10.4	411
10.5	444
10.6	412
10.7	397
10.8	410
10.9	440
11.0	578
11.1	752
11.2	857
11.3	908
11.4	942
11.5	915
11.6	927
11.7	869
11.8	839
11.9	856
12.0	821
12.1	771
12.2	784
12.3	767
12.4	796
12.5	750
12.6	698
12.7	705
12.8	708
12.9	651
13.0	668
13.1	658
13.2	620
13.3	568
13.4	568
13.5	548
13.6	517
13.7	512
13.8	480
13.9	441
14.0	446
14.1	404
14.2	431
14.3	404
14.4	398
14.5	386
14.6	362
14.7	347
14.8	356
14.9	329
15.0	352
15.1	319
15.2	310
15.3	304
15.4	286
15.5	290
15.6	276
15.7	271
15.8	269
15.9	289
16.0	271
16.1	275
16.2	257
16.3	234
16.4	228
16.5	231
16.6	262
16.7	223
16.8	210
16.9	211
17.0	205
17.1	208
17.2	212
17.3	191
17.4	186
17.5	201
17.6	186
17.7	174
17.8	178
17.9	176
18.0	160
18.1	170
18.2	167
18.3	163
18.4	141
18.5	144
18.6	140
18.7	132
18.8	152
18.9	147
19.0	151
19.1	140
19.2	131
19.3	139
19.4	143
19.5	141
19.6	151
19.7	149
19.8	167
19.9	138
20.0	161
20.1	218
20.2	398
20.3	870
20.4	644
20.5	709
20.6	347
20.7	184
20.8	159
20.9	145
21.0	145
21.1	131
21.2	130
21.3	119
21.4	112
21.5	123
21.6	113
21.7	120
21.8	144
21.9	140
22.0	162
22.1	176
22.2	181
22.3	221
22.4	362
22.5	951
22.6	1841
22.7	1595
22.8	1434
22.9	582
23.0	303
23.1	205
23.2	191
23.3	174
23.4	157
23.5	158
23.6	141
23.7	149
23.8	150
23.9	142
24.0	125
24.1	134
24.2	114
24.3	135
24.4	123
24.5	118
24.6	129
24.7	128
24.8	105
24.9	125
25.0	113
