Current	Flux density B
I/A	B/mT

-0.002	-1.060
-0.008	-0.530
0.003	-0.530
-0.005	-0.530
-0.006	-0.530
-0.002	-0.530
-0.005	-0.530
0.000	-0.530
0.002	0.530
0.003	1.590
0.012	2.120
0.012	3.709
0.014	5.299
0.021	4.769
0.029	6.359
0.024	8.478
0.027	8.478
0.037	9.008
0.035	11.128
0.034	11.658
0.035	12.717
0.046	13.777
0.044	15.367
0.049	15.897
0.052	17.486
0.053	17.486
0.049	19.606
0.058	19.606
0.060	19.606
0.055	19.606
0.058	22.256
0.063	24.375
0.076	26.495
0.081	28.614
0.069	30.204
0.082	30.734
0.086	33.913
0.079	34.443
0.095	39.212
0.096	40.272
0.093	40.272
0.095	40.272
0.099	40.272
0.099	40.802
0.096	40.802
0.096	41.332
0.108	46.101
0.105	46.101
0.107	46.631
0.105	47.690
0.110	48.750
0.116	48.750
0.110	48.750
0.118	50.340
0.127	55.109
0.121	56.699
0.134	57.758
0.124	58.818
0.139	61.997
0.140	63.587
0.144	64.647
0.145	65.707
0.151	67.296
0.142	68.356
0.157	68.886
0.157	71.006
0.148	71.006
0.156	71.006
0.154	72.065
0.160	73.655
0.159	76.305
0.174	78.424
0.176	82.133
0.170	83.193
0.182	85.313
0.186	87.962
0.179	88.492
0.189	91.142
0.188	92.201
0.197	92.731
0.183	93.261
0.188	93.261
0.197	93.791
0.189	93.261
0.199	93.791
0.211	100.680
0.212	107.038
0.211	107.038
0.206	107.568
0.211	111.278
0.223	111.278
0.215	111.807
0.212	112.867
0.226	114.457
0.228	116.576
0.223	118.696
0.232	118.696
0.229	118.696
0.231	118.696
0.221	118.696
0.232	119.226
0.234	120.816
0.235	121.875
0.240	126.115
0.240	126.115
0.247	126.115
0.237	126.115
0.246	128.234
0.250	129.294
0.249	130.354
0.247	130.884
0.244	130.884
0.252	130.884
0.246	130.354
0.247	131.943
0.255	133.003
0.255	133.533
0.250	133.533
0.257	133.533
0.261	135.653
0.258	136.182
0.263	136.712
0.273	143.071
0.278	146.250
0.283	150.490
0.276	151.020
0.286	150.490
0.281	151.020
0.296	153.669
0.305	163.207
0.313	167.976
0.316	171.155
0.310	174.335
0.325	177.514
0.322	177.514
0.316	177.514
0.319	177.514
0.319	177.514
0.321	178.044
0.312	177.514
0.327	178.044
0.334	183.343
0.345	193.411
0.356	195.001
0.351	195.001
0.347	195.001
0.341	195.001
0.350	195.001
0.345	194.471
0.351	195.001
0.344	195.001
0.353	195.001
0.351	196.060
0.360	200.829
0.365	204.539
0.380	210.368
0.382	212.487
0.386	216.196
0.386	216.726
0.394	218.316
0.396	220.965
0.392	222.555
0.403	224.145
0.405	227.854
0.409	228.384
0.415	232.623
0.409	235.272
0.420	236.862
0.418	237.392
0.421	240.571
0.432	243.751
0.435	246.400
0.432	246.930
0.428	247.460
0.429	247.460
0.431	247.460
0.443	249.580
0.440	253.819
0.450	255.408
0.450	256.998
0.452	256.998
0.450	258.058
0.454	260.707
0.461	261.767
0.463	261.237
0.454	261.237
0.460	263.887
0.475	269.716
0.470	270.775
0.484	275.544
0.492	278.724
0.492	281.903
0.492	282.433
0.486	282.433
0.490	282.963
0.505	287.732
0.501	288.792
0.505	290.381
0.509	291.441
0.507	291.441
0.507	291.441
0.525	300.979
0.533	302.039
0.521	301.509
0.528	301.509
0.528	302.039
0.544	308.928
0.548	317.406
0.562	318.996
0.567	323.235
0.556	323.765
0.573	324.295
0.577	328.534
0.579	333.303
0.583	336.482
0.594	338.072
0.596	340.721
0.589	341.251
0.599	341.251
0.596	342.311
0.606	347.610
0.606	349.729
0.617	349.199
0.608	349.729
0.597	349.729
0.615	353.969
0.638	366.156
0.647	370.395
0.652	374.104
0.663	377.284
0.664	380.463
0.661	382.053
0.666	382.053
0.669	382.053
0.670	382.053
0.667	385.762
0.683	391.061
0.699	396.890
0.706	402.189
0.704	404.308
0.710	405.368
0.718	406.958
0.728	412.787
0.727	412.787
0.731	417.026
0.742	421.265
0.753	424.444
0.744	424.974
0.754	426.034
0.767	432.393
0.759	432.923
0.757	432.923
0.764	433.452
0.764	432.923
0.762	433.452
0.765	433.452
0.768	433.452
0.777	440.341
0.790	446.170
0.796	447.760
0.800	451.469
0.808	454.648
0.805	454.648
0.805	454.648
0.811	454.648
0.820	460.477
0.838	466.836
0.837	469.485
0.840	473.194
0.857	479.023
0.866	482.203
0.872	482.203
0.875	485.912
0.872	487.502
0.884	488.031
0.892	491.741
0.881	492.271
0.904	498.629
0.903	500.219
0.903	500.219
0.906	500.219
0.896	500.219
0.904	500.219
0.918	504.988
0.915	508.697
0.925	510.287
0.941	514.526
0.936	517.705
0.945	518.765
0.944	519.825
0.950	522.474
0.954	523.004
0.956	526.714
0.964	527.244
0.961	527.244
0.964	527.244
0.964	527.244
0.964	527.773
0.965	527.244
0.964	527.244
0.974	533.072
0.985	535.722
0.997	541.021
0.996	542.610
1.003	544.200
1.017	547.379
1.017	548.969
1.022	551.619
1.020	552.678
1.034	554.798
1.028	556.918
1.035	557.977
1.057	563.806
1.055	565.926
1.067	570.165
1.063	571.225
1.078	573.874
1.077	573.874
1.067	573.874
1.066	573.874
1.075	573.874
1.070	573.874
1.067	574.404
1.077	574.404
1.072	574.404
1.074	574.404
1.074	574.934
1.077	574.404
1.077	574.404
1.078	574.934
1.069	574.404
1.072	574.404
1.074	574.404
1.070	574.934
1.075	574.934
1.078	574.404
1.074	574.934
1.070	575.464
1.077	575.464
1.078	574.934
1.070	575.464
1.070	575.464
1.070	574.934
1.046	572.284
1.035	570.165
1.028	567.515
1.008	564.336
0.999	562.216
1.000	561.687
0.990	560.097
0.983	558.507
0.977	556.918
0.965	555.858
0.961	553.208
0.956	551.089
0.939	548.439
0.930	546.320
0.930	545.260
1.141	545.260
0.916	543.140
0.901	538.901
0.912	538.371
0.903	538.371
0.889	535.192
0.892	535.192
0.889	533.602
0.872	528.303
0.867	528.833
0.867	528.833
0.863	525.654
0.849	521.945
0.846	519.825
0.854	519.825
0.854	519.295
0.849	519.295
0.835	514.526
0.822	510.817
0.814	507.108
0.809	503.928
0.794	500.749
0.797	500.219
0.791	499.689
0.797	499.689
0.780	494.920
0.779	492.271
0.764	488.031
0.762	487.502
0.756	484.852
0.748	479.023
0.733	474.254
0.712	467.896
0.712	462.067
0.699	459.947
0.695	457.298
0.683	450.409
0.680	449.349
0.686	449.349
0.683	449.349
0.655	441.931
0.654	433.982
0.644	429.743
0.634	426.034
0.632	423.385
0.622	418.615
0.612	413.846
0.602	408.548
0.603	405.898
0.589	401.129
0.577	398.480
0.579	392.121
0.570	387.352
0.560	386.292
0.562	383.113
0.553	380.993
0.554	379.933
0.545	377.814
0.551	377.814
0.551	377.284
0.547	377.284
0.538	373.045
0.531	366.686
0.519	364.566
0.518	361.917
0.507	354.498
0.512	352.379
0.499	349.729
0.499	344.960
0.501	344.960
0.493	344.960
0.499	344.960
0.492	344.960
0.492	341.781
0.480	335.422
0.463	330.653
0.452	322.175
0.455	317.936
0.441	315.816
0.431	309.987
0.415	295.150
0.406	291.971
0.412	291.441
0.402	291.441
0.382	278.724
0.370	270.245
0.363	262.827
0.353	256.998
0.348	256.998
0.351	256.468
0.354	256.468
0.351	256.468
0.348	256.468
0.357	256.468
0.347	255.938
0.354	256.468
0.353	256.468
0.356	256.468
0.357	256.468
0.344	256.468
0.356	256.468
0.356	256.468
0.345	256.468
0.348	255.938
0.351	256.468
0.344	255.938
0.353	256.468
0.348	256.468
0.351	255.938
0.353	256.468
0.341	253.819
0.330	245.870
0.328	242.161
0.325	239.512
0.319	236.332
0.318	235.802
0.318	235.272
0.319	234.743
0.304	231.563
0.298	226.264
0.301	223.085
0.295	220.435
0.281	216.196
0.273	211.957
0.276	208.778
0.272	207.718
0.272	207.718
0.272	207.188
0.272	205.598
0.252	197.650
0.244	190.761
0.223	181.753
0.215	174.335
0.221	172.745
0.206	169.036
0.202	163.737
0.208	163.207
0.202	162.677
0.197	162.147
0.186	154.729
0.177	144.661
0.170	139.892
0.165	135.653
0.156	135.653
0.162	135.653
0.157	134.063
0.147	129.294
0.130	119.756
0.125	111.278
0.102	103.859
0.107	102.799
0.102	102.799
0.105	102.269
0.113	102.799
0.108	102.799
0.107	102.799
0.110	102.269
0.108	102.799
0.107	102.269
0.113	102.269
0.105	102.799
0.113	102.269
0.108	102.269
0.092	96.970
0.084	85.843
0.066	77.894
0.060	71.536
0.050	66.237
0.057	65.707
0.053	65.707
0.044	65.707
0.050	66.237
0.052	65.707
0.038	60.408
0.035	57.228
0.037	55.639
0.034	52.459
0.023	51.400
0.031	51.400
0.035	50.870
0.021	50.870
0.015	46.101
0.014	40.802
0.012	39.212
0.002	37.093
0.008	35.503
0.005	35.503
-0.003	34.973
0.000	34.973
0.000	33.383
-0.006	32.853
-0.002	33.383
0.005	33.383
-0.003	32.853
-0.002	33.383
0.003	33.383
0.005	33.383
-0.005	32.853
0.000	33.383
0.002	33.383
-0.005	33.383
-0.003	33.383
0.003	33.383
-0.006	32.853
0.002	32.853
-0.003	32.853
-0.002	33.383
-0.005	33.383
0.000	32.853
0.002	33.383
0.000	33.383
0.005	32.853
-0.003	32.853
-0.002	33.383
0.000	33.383
0.003	33.383
-0.003	32.853
0.003	32.853
-0.002	32.853
0.003	32.853
-0.002	32.853
-0.003	32.853
0.000	32.853
-0.002	32.853
-0.005	32.853
-0.002	32.853
0.003	32.853
-0.009	32.853
-0.006	32.853
-0.003	32.853
0.006	32.853
-0.005	30.734
-0.017	22.785
-0.014	20.136
-0.027	18.016
-0.035	14.307
-0.034	12.717
-0.041	11.128
-0.040	8.478
-0.044	6.889
-0.053	3.179
-0.044	2.649
-0.047	2.649
-0.055	1.060
-0.058	-3.709
-0.064	-6.359
-0.063	-9.008
-0.078	-12.188
-0.078	-14.837
-0.084	-15.897
-0.086	-15.897
-0.078	-15.367
-0.082	-19.606
-0.095	-20.666
-0.102	-24.905
-0.099	-27.554
-0.111	-32.853
-0.108	-34.443
-0.118	-35.503
-0.119	-40.272
-0.102	-40.802
-0.128	-44.511
-0.136	-50.870
-0.140	-51.930
-0.139	-52.989
-0.147	-53.519
-0.144	-53.519
-0.148	-54.579
-0.151	-56.699
-0.147	-58.818
-0.163	-63.587
-0.159	-65.177
-0.154	-65.707
-0.170	-65.707
-0.173	-71.006
-0.182	-74.185
-0.185	-79.484
-0.185	-82.663
-0.194	-82.663
-0.192	-82.663
-0.186	-84.253
-0.203	-91.142
-0.214	-99.090
-0.212	-101.739
-0.220	-104.389
-0.220	-104.389
-0.228	-105.979
-0.229	-112.337
-0.249	-119.756
-0.255	-126.115
-0.263	-128.234
-0.260	-128.234
-0.249	-127.704
-0.263	-129.824
-0.266	-134.063
-0.270	-138.832
-0.286	-141.481
-0.273	-142.541
-0.284	-143.071
-0.278	-143.071
-0.290	-145.721
-0.301	-155.259
-0.313	-162.147
-0.313	-165.857
-0.316	-166.386
-0.315	-166.386
-0.331	-173.805
-0.353	-182.813
-0.351	-187.052
-0.351	-188.112
-0.353	-188.642
-0.354	-188.642
-0.348	-188.112
-0.345	-188.642
-0.359	-188.642
-0.353	-188.642
-0.357	-188.112
-0.350	-188.642
-0.347	-188.642
-0.360	-188.112
-0.348	-188.642
-0.347	-188.642
-0.357	-188.112
-0.354	-188.642
-0.350	-188.112
-0.353	-188.642
-0.354	-188.642
-0.356	-188.642
-0.356	-188.642
-0.357	-191.291
-0.368	-193.941
-0.362	-196.060
-0.370	-196.060
-0.368	-196.590
-0.374	-198.710
-0.382	-205.598
-0.383	-210.897
-0.396	-215.666
-0.409	-220.435
-0.408	-224.675
-0.411	-224.675
-0.418	-226.264
-0.431	-235.802
-0.446	-245.870
-0.457	-253.289
-0.454	-256.998
-0.472	-258.058
-0.463	-257.528
-0.484	-266.536
-0.499	-274.485
-0.521	-288.792
-0.534	-296.210
-0.527	-296.740
-0.534	-298.330
-0.557	-311.577
-0.567	-316.346
-0.571	-321.645
-0.580	-328.004
-0.589	-330.123
-0.588	-330.123
-0.594	-330.653
-0.603	-338.602
-0.612	-343.901
-0.625	-350.789
-0.628	-355.028
-0.631	-356.618
-0.635	-356.618
-0.646	-359.267
-0.658	-369.335
-0.672	-376.224
-0.673	-380.993
-0.675	-381.523
-0.684	-381.523
-0.686	-386.292
-0.699	-395.830
-0.715	-403.778
-0.718	-404.838
-0.718	-404.838
-0.730	-409.607
-0.748	-422.325
-0.771	-432.923
-0.779	-438.751
-0.779	-439.281
-0.779	-439.281
-0.796	-445.110
-0.805	-453.059
-0.828	-462.067
-0.834	-464.716
-0.826	-464.716
-0.828	-465.246
-0.832	-468.425
-0.857	-478.493
-0.866	-483.792
-0.866	-485.912
-0.864	-485.382
-0.875	-485.912
-0.872	-485.912
-0.866	-486.972
-0.883	-489.621
-0.890	-495.450
-0.898	-500.219
-0.903	-502.868
-0.895	-501.809
-0.907	-502.868
-0.907	-506.578
-0.927	-510.817
-0.927	-514.526
-0.935	-517.176
-0.928	-517.705
-0.936	-517.705
-0.933	-518.235
-0.935	-518.235
-0.945	-524.594
-0.951	-528.303
-0.971	-533.072
-0.961	-534.662
-0.974	-534.662
-0.964	-534.662
-0.968	-534.662
-0.977	-538.901
-0.983	-542.081
-0.994	-545.790
-0.990	-545.790
-0.994	-546.320
-0.997	-546.320
-0.997	-547.379
-1.016	-553.208
-1.012	-554.268
-1.023	-556.918
-1.022	-556.918
-1.014	-557.447
-1.020	-557.977
-1.037	-562.746
-1.040	-564.336
-1.040	-568.575
-1.049	-571.225
-1.054	-570.695
-1.049	-571.225
-1.048	-571.225
-1.054	-572.284
-1.067	-579.173
-1.077	-582.352
-1.074	-582.352
-1.077	-582.882
-1.083	-582.882
-1.072	-582.352
-1.075	-582.352
-1.084	-582.352
-1.083	-582.352
-1.074	-582.352
-1.074	-582.352
-1.080	-582.882
-1.077	-582.882
-1.080	-582.882
-1.072	-582.882
-1.084	-582.882
-1.078	-582.882
-1.080	-583.412
-1.086	-582.882
-1.080	-582.882
-1.080	-583.412
-1.072	-582.882
-1.080	-583.412
-1.077	-583.412
-1.074	-582.882
-1.074	-583.412
-1.074	-583.412
-1.072	-583.412
-1.077	-583.412
-1.074	-583.412
-1.084	-583.412
-1.072	-582.882
-1.048	-580.233
-1.046	-578.113
-1.051	-578.113
-1.051	-578.113
-1.045	-578.113
-1.032	-577.583
-1.035	-576.524
-1.034	-575.994
-1.016	-573.874
-1.026	-573.344
-1.014	-572.284
-1.008	-572.814
-0.994	-566.985
-0.985	-566.985
-0.983	-564.866
-0.965	-562.216
-0.954	-559.567
-0.957	-559.037
-0.953	-559.037
-0.927	-553.738
-0.921	-550.029
-0.921	-548.439
-0.901	-545.260
-0.895	-543.140
-0.901	-542.610
-0.898	-543.140
-0.877	-538.371
-0.866	-531.483
-0.867	-531.483
-0.844	-527.244
-0.840	-521.945
-0.829	-521.945
-0.843	-521.415
-0.829	-520.885
-0.814	-517.176
-0.811	-512.936
-0.800	-508.167
-0.793	-502.868
-0.776	-500.219
-0.780	-500.219
-0.782	-500.219
-0.774	-496.510
-0.759	-492.271
-0.751	-486.442
-0.741	-484.852
-0.735	-481.673
-0.741	-481.143
-0.741	-481.143
-0.736	-481.143
-0.724	-477.963
-0.712	-471.605
-0.716	-467.896
-0.710	-466.306
-0.701	-465.776
-0.695	-464.186
-0.706	-462.067
-0.698	-462.067
-0.690	-462.067
-0.690	-458.887
-0.669	-451.469
-0.673	-448.819
-0.660	-447.230
-0.657	-443.520
-0.658	-442.991
-0.664	-443.520
-0.652	-442.991
-0.647	-440.871
-0.647	-434.512
-0.625	-427.624
-0.620	-423.914
-0.618	-419.675
-0.620	-419.675
-0.618	-419.145
-0.618	-419.145
-0.599	-412.787
-0.599	-408.548
-0.589	-404.308
-0.579	-402.189
-0.576	-397.950
-0.576	-396.890
-0.582	-397.420
-0.577	-397.420
-0.567	-394.240
-0.565	-390.531
-0.538	-379.933
-0.541	-375.694
-0.544	-375.694
-0.545	-375.694
-0.534	-374.634
-0.536	-370.925
-0.512	-363.507
-0.501	-355.028
-0.486	-347.610
-0.487	-347.080
-0.490	-347.080
-0.493	-347.080
-0.473	-338.072
-0.469	-331.183
-0.460	-326.944
-0.458	-326.414
-0.461	-326.414
-0.438	-316.876
-0.428	-306.278
-0.414	-298.860
-0.399	-294.091
-0.405	-293.561
-0.405	-293.561
-0.386	-287.732
-0.377	-280.313
-0.365	-272.895
-0.363	-267.596
-0.368	-267.066
-0.356	-267.066
-0.357	-261.767
-0.348	-261.237
-0.348	-261.767
-0.354	-261.237
-0.350	-261.237
-0.357	-261.237
-0.348	-261.237
-0.354	-261.237
-0.357	-261.237
-0.347	-261.237
-0.345	-257.528
-0.328	-250.639
-0.324	-245.870
-0.321	-242.161
-0.324	-238.452
-0.318	-238.452
-0.322	-238.452
-0.313	-237.392
-0.301	-229.444
-0.295	-224.675
-0.286	-219.906
-0.279	-214.607
-0.278	-212.487
-0.266	-206.658
-0.258	-204.539
-0.266	-204.009
-0.261	-202.419
-0.250	-200.829
-0.255	-198.180
-0.246	-194.471
-0.238	-193.411
-0.252	-193.411
-0.247	-193.411
-0.246	-193.411
-0.234	-187.052
-0.221	-182.283
-0.218	-179.104
-0.226	-177.514
-0.208	-174.865
-0.214	-172.215
-0.200	-168.506
-0.202	-167.976
-0.209	-166.386
-0.188	-161.617
-0.183	-157.378
-0.177	-152.079
-0.174	-145.191
-0.162	-144.131
-0.166	-143.601
-0.176	-143.601
-0.157	-140.952
-0.144	-131.943
-0.136	-125.055
-0.136	-120.816
-0.130	-118.166
-0.111	-112.337
-0.108	-108.628
-0.111	-105.979
-0.104	-102.269
-0.093	-99.090
-0.098	-95.381
-0.092	-92.731
-0.089	-92.201
-0.087	-92.201
-0.087	-91.671
-0.078	-86.373
-0.067	-80.014
-0.058	-74.185
-0.055	-69.946
-0.041	-66.767
-0.043	-64.117
-0.034	-60.408
-0.031	-57.758
-0.037	-56.169
-0.023	-51.930
-0.020	-49.280
-0.018	-47.160
-0.006	-43.981
0.000	-39.212
-0.008	-38.682
0.000	-37.093
0.003	-37.093
-0.002	-37.622
-0.008	-37.093
-0.006	-37.622
-0.008	-37.093
0.002	-37.093
-0.006	-37.622
0.005	-37.093
-0.002	-37.622
-0.002	-37.093
-0.005	-37.093
-0.002	-37.093
0.002	-37.093
-0.006	-37.093
-0.006	-37.622
-0.002	-37.622
0.002	-36.563
-0.006	-36.563
0.006	-36.563
0.000	-36.563
0.002	-36.563
0.000	-37.093
-0.003	-37.093
0.005	-37.093
-0.002	-36.563
-0.002	-37.093
0.000	-37.093
-0.006	-36.563
0.003	-36.563
-0.002	-37.093
-0.002	-37.093
-0.002	-37.093
-0.003	-37.093
-0.003	-36.563
0.003	-36.563
0.009	-34.973
0.008	-33.913
0.000	-33.913
0.011	-30.734
0.011	-27.554
0.012	-23.315
0.017	-21.726
0.026	-19.076
0.034	-17.486
0.029	-17.486
0.035	-11.128
0.035	-10.068
0.043	-9.008
0.046	-7.419
0.052	-5.299
0.057	-1.590
0.055	-1.060
0.053	1.590
0.064	3.709
0.070	4.239
0.072	5.299
0.067	9.538
0.081	10.598
0.078	10.598
0.075	10.598
0.070	10.598
0.076	11.128
0.076	13.777
0.082	16.427
0.095	22.256
0.093	23.845
0.099	24.905
0.098	25.965
0.105	30.734
0.110	31.264
0.121	34.443
0.116	37.093
0.128	40.802
0.139	44.511
0.131	45.041
0.134	46.631
0.128	46.631
0.134	46.631
0.140	48.750
0.142	51.930
0.150	55.639
0.159	58.818
0.156	60.408
0.154	60.938
0.166	65.177
0.163	65.707
0.171	66.237
0.165	67.296
0.163	67.826
0.173	68.886
0.179	74.185
0.186	76.305
0.188	77.364
0.192	80.014
0.191	80.014
0.189	80.544
0.183	80.544
0.189	81.604
0.195	87.432
0.212	94.321
0.220	99.620
0.223	102.269
0.226	104.389
0.220	104.389
0.231	111.278
0.234	111.807
0.232	111.807
0.234	111.807
0.231	111.807
0.226	111.807
0.241	112.337
0.237	114.987
0.238	117.636
0.261	122.935
0.258	125.055
0.252	125.585
0.253	125.055
0.255	125.055
0.257	125.055
0.258	125.585
0.253	125.055
0.263	127.704
0.257	128.764
0.273	133.533
0.279	137.242
0.279	138.832
0.278	139.892
0.272	139.892
0.278	139.892
0.284	139.892
0.273	140.422
0.283	143.071
0.296	147.310
0.292	148.370
0.296	151.549
0.293	152.609
0.302	154.199
0.296	154.729
0.308	156.848
0.305	156.848
0.298	156.848
0.307	156.848
0.310	161.617
0.318	163.207
0.321	166.386
0.324	168.506
0.321	169.036
0.330	169.036
0.330	169.036
0.331	174.865
0.341	180.164
0.354	181.223
0.345	184.933
0.351	184.933
0.350	184.933
0.356	184.933
0.357	184.933
0.345	184.933
0.353	185.463
0.353	184.933
0.348	184.933
0.348	184.933
0.356	184.933
0.353	185.463
0.351	184.933
0.348	184.933
0.350	185.463
0.347	185.463
0.348	185.463
0.365	189.702
0.363	196.060
0.376	199.770
0.377	200.300
0.386	206.128
0.402	212.487
0.414	226.264
0.421	228.384
0.420	228.384
0.418	228.384
0.434	233.153
0.452	241.631
0.464	251.699
0.472	259.648
0.493	270.775
0.504	277.664
0.505	280.843
0.518	282.963
0.507	284.023
0.515	284.023
0.516	288.262
0.560	307.868
0.577	319.525
0.594	327.474
0.594	328.534
0.583	328.534
0.626	344.960
0.646	361.387
0.655	366.156
0.652	367.746
0.666	369.335
0.670	373.575
0.681	378.344
0.681	383.113
0.683	383.643
0.681	383.643
0.727	400.599
0.725	408.018
0.745	416.496
0.748	419.145
0.753	420.205
0.747	420.735
0.776	431.863
0.793	440.341
0.800	442.991
0.806	447.230
0.803	449.349
0.805	449.349
0.819	451.999
0.829	459.947
0.835	465.776
0.849	472.665
0.863	478.493
0.877	484.322
0.869	486.972
0.873	486.972
0.881	487.502
0.892	495.450
0.916	502.868
0.928	510.287
0.932	515.586
0.947	519.825
0.950	521.415
0.953	520.885
0.953	521.945
0.968	525.124
0.990	537.841
0.997	542.610
1.017	547.909
1.012	548.439
1.014	548.439
1.014	548.969
1.022	550.029
1.037	559.567
1.041	564.866
1.043	565.396
1.054	565.926
1.066	570.165
1.074	574.934
1.093	579.173
1.090	581.823
1.092	582.352
1.092	582.352
1.093	582.352
1.084	581.823
1.093	581.823
1.092	582.352
1.090	582.352
1.090	582.352
1.095	582.352
1.095	582.882
1.099	582.882
1.087	582.882
1.090	582.352
1.092	582.352
1.093	582.352
1.087	582.352
1.092	582.352
1.093	582.882
1.098	582.352
1.087	582.882
