Current	Flux density B
I/A	B/mT

0.154	0.530
0.144	0.000
0.145	0.000
0.150	0.000
0.144	0.000
0.150	0.530
0.145	0.530
0.165	1.060
0.165	1.060
0.168	1.060
0.174	1.590
0.179	2.649
0.186	3.709
0.189	4.769
0.191	5.829
0.199	6.359
0.197	6.889
0.206	7.948
0.200	7.948
0.197	7.948
0.208	7.948
0.205	7.948
0.195	7.948
0.199	7.948
0.206	7.948
0.206	9.538
0.212	11.128
0.217	11.128
0.214	11.658
0.215	12.717
0.214	12.717
0.212	12.717
0.224	14.307
0.220	14.837
0.229	16.427
0.238	16.427
0.237	16.957
0.244	19.076
0.241	19.606
0.260	20.666
0.261	22.785
0.263	23.315
0.258	23.315
0.264	23.315
0.260	23.845
0.269	23.845
0.264	23.845
0.257	23.315
0.269	23.845
0.264	23.845
0.266	24.375
0.273	24.905
0.261	24.905
0.270	25.435
0.269	25.435
0.260	25.435
0.261	25.965
0.264	25.435
0.272	25.965
0.272	26.495
0.272	26.495
0.269	26.495
0.261	27.025
0.266	26.495
0.267	26.495
0.275	27.554
0.276	28.614
0.287	28.614
0.287	31.264
0.298	31.794
0.292	31.794
0.292	33.383
0.287	32.853
0.304	32.853
0.292	33.383
0.308	33.913
0.302	34.973
0.310	34.973
0.319	36.033
0.318	39.212
0.325	39.742
0.324	40.272
0.319	39.742
0.319	40.272
0.333	40.802
0.333	41.332
0.336	41.862
0.339	43.451
0.350	45.571
0.353	46.631
0.348	46.631
0.348	46.631
0.357	46.631
0.354	47.690
0.350	47.690
0.360	47.690
0.362	48.750
0.360	48.750
0.368	50.340
0.397	54.579
0.396	55.109
0.399	56.699
0.397	57.228
0.402	57.228
0.400	57.228
0.403	57.758
0.406	58.818
0.418	59.878
0.418	60.938
0.423	61.468
0.425	61.997
0.434	63.587
0.437	64.117
0.431	65.177
0.443	65.707
0.452	66.767
0.452	67.826
0.457	68.886
0.452	69.416
0.467	70.476
0.463	70.476
0.470	70.476
0.472	71.536
0.470	72.595
0.478	73.125
0.484	73.655
0.487	74.715
0.489	75.245
0.487	76.305
0.490	76.305
0.498	76.834
0.493	77.364
0.498	77.894
0.510	78.954
0.527	81.604
0.530	83.193
0.533	83.193
0.528	83.193
0.534	83.723
0.531	83.723
0.536	83.723
0.551	85.843
0.563	90.082
0.577	92.201
0.589	93.261
0.583	93.261
0.585	92.731
0.583	93.261
0.593	93.261
0.589	93.791
0.585	93.791
0.606	95.381
0.614	96.441
0.611	97.500
0.615	98.030
0.620	99.620
0.626	100.150
0.637	100.150
0.632	101.210
0.646	101.210
0.638	101.739
0.641	102.269
0.649	102.799
0.638	102.269
0.651	102.269
0.657	103.859
0.669	105.449
0.670	105.979
0.681	107.038
0.672	107.038
0.675	107.038
0.683	107.568
0.687	107.568
0.678	108.098
0.687	108.098
0.684	108.098
0.692	109.158
0.704	109.158
0.699	109.688
0.698	110.218
0.704	110.218
0.712	110.748
0.706	111.278
0.715	111.807
0.709	111.807
0.712	111.807
0.716	112.337
0.715	112.337
0.722	113.397
0.731	113.927
0.730	113.927
0.725	113.927
0.736	114.987
0.739	114.987
0.733	114.987
0.736	114.987
0.736	114.987
0.741	114.987
0.735	115.517
0.747	115.517
0.748	116.047
0.741	116.047
0.742	116.047
0.742	116.047
0.741	116.047
0.742	116.047
0.748	116.047
0.751	116.576
0.750	117.636
0.757	117.636
0.762	118.696
0.756	118.166
0.765	118.696
0.773	119.226
0.779	120.286
0.777	120.286
0.779	120.816
0.776	121.345
0.786	121.345
0.785	121.875
0.796	122.405
0.790	122.935
0.794	122.935
0.802	123.465
0.799	123.465
0.802	123.465
0.797	122.935
0.794	122.935
0.805	123.465
0.811	124.525
0.817	124.525
0.819	126.115
0.822	126.115
0.823	126.644
0.837	127.174
0.843	127.174
0.837	127.704
0.834	127.174
0.848	128.234
0.849	128.764
0.835	128.764
0.846	128.764
0.852	128.764
0.852	128.764
0.857	129.294
0.854	129.294
0.858	129.294
0.848	129.294
0.852	129.824
0.858	129.824
0.870	130.354
0.878	132.473
0.883	133.003
0.898	133.533
0.903	134.063
0.895	134.593
0.912	135.123
0.909	135.123
0.909	135.653
0.912	136.182
0.927	137.242
0.932	137.772
0.936	137.772
0.932	138.302
0.938	138.302
0.947	139.362
0.950	139.892
0.951	139.892
0.965	140.422
0.962	140.952
0.970	140.952
0.970	140.952
0.964	140.952
0.957	140.952
0.962	140.952
0.967	140.952
0.977	142.011
0.976	142.541
0.996	143.071
0.994	144.131
1.005	144.661
1.003	145.191
1.006	144.661
1.005	144.661
0.999	144.661
1.009	144.661
1.009	145.191
1.003	144.661
1.008	145.191
1.005	144.661
1.009	144.661
1.005	145.191
1.009	145.191
1.031	146.250
1.037	147.310
1.048	148.370
1.061	148.900
1.055	149.430
1.055	149.430
1.049	149.430
1.058	149.430
1.048	149.430
1.058	149.960
1.055	149.430
1.049	149.430
1.063	149.430
1.052	149.430
1.057	149.430
1.057	149.430
1.049	149.430
1.058	149.430
1.054	149.960
1.060	149.960
1.061	149.430
1.055	149.960
1.061	149.960
1.052	149.430
1.060	149.430
1.060	149.430
1.057	149.430
1.054	149.430
1.057	149.430
1.055	149.430
1.060	149.960
1.051	149.430
1.052	149.960
1.049	149.430
1.057	149.430
1.043	149.430
1.041	148.900
1.031	148.900
1.031	148.370
1.026	148.370
1.022	148.370
1.020	148.370
1.029	148.900
1.023	148.900
1.016	148.370
1.028	148.370
1.017	148.370
1.006	147.840
1.009	147.840
1.005	147.310
0.994	147.310
1.005	147.310
1.000	147.310
0.985	146.780
0.983	146.780
0.994	146.250
0.980	146.780
0.979	146.780
0.983	146.780
0.976	146.250
0.964	145.721
0.971	146.250
0.968	145.721
0.961	145.721
0.957	145.721
0.959	145.721
0.962	145.191
0.951	145.721
0.954	145.191
0.945	145.191
0.938	144.661
0.933	144.131
0.938	144.131
0.942	145.191
0.945	144.661
0.939	144.661
0.939	144.661
0.936	144.661
0.933	144.131
0.933	144.131
0.919	144.661
0.935	144.131
0.925	144.131
0.912	144.131
0.924	144.131
0.913	143.071
0.904	143.071
0.903	143.071
0.901	143.071
0.895	142.541
0.895	142.541
0.892	142.541
0.892	142.541
0.895	142.541
0.884	142.011
0.887	142.541
0.887	142.011
0.869	142.011
0.866	141.481
0.864	140.952
0.841	140.422
0.844	139.892
0.841	140.422
0.843	139.892
0.811	138.832
0.788	137.242
0.791	137.242
0.768	136.712
0.765	135.653
0.762	135.653
0.754	135.123
0.760	135.123
0.741	134.593
0.738	134.063
0.739	134.063
0.733	134.063
0.724	133.003
0.715	133.003
0.698	131.943
0.701	131.413
0.701	131.943
0.710	131.943
0.693	131.413
0.673	131.413
0.678	130.354
0.681	130.354
0.670	129.824
0.666	129.294
0.655	129.294
0.658	128.764
0.658	128.764
0.640	127.704
0.629	127.174
0.623	126.644
0.614	126.115
0.603	125.585
0.612	125.585
0.596	125.055
0.596	124.525
0.593	125.055
0.588	124.525
0.588	123.995
0.577	122.935
0.563	122.935
0.554	121.345
0.553	120.816
0.534	120.286
0.538	120.816
0.545	120.286
0.541	120.286
0.533	120.286
0.518	118.696
0.519	118.166
0.510	118.166
0.499	117.636
0.507	117.106
0.492	116.576
0.487	116.576
0.496	116.047
0.484	115.517
0.480	115.517
0.467	114.987
0.475	114.457
0.467	114.457
0.467	114.457
0.473	114.457
0.463	114.457
0.466	113.927
0.469	113.927
0.463	113.927
0.458	113.397
0.452	112.867
0.458	112.867
0.446	112.867
0.444	112.337
0.450	112.337
0.444	112.337
0.438	112.337
0.437	111.807
0.438	111.278
0.446	111.278
0.432	111.278
0.431	110.748
0.423	110.218
0.434	110.218
0.429	110.218
0.423	109.688
0.418	109.688
0.417	109.158
0.412	108.628
0.409	108.098
0.406	108.098
0.394	107.568
0.409	107.568
0.405	108.098
0.403	107.568
0.397	107.038
0.383	105.979
0.373	104.919
0.368	104.389
0.371	103.859
0.363	103.329
0.357	103.329
0.363	102.799
0.350	102.269
0.350	102.269
0.345	102.269
0.350	101.210
0.344	101.210
0.336	101.739
0.344	101.210
0.345	101.210
0.341	101.210
0.336	101.210
0.347	101.210
0.339	101.210
0.345	101.210
0.341	101.210
0.339	101.210
0.344	101.210
0.339	101.210
0.345	101.210
0.334	100.680
0.322	99.620
0.310	98.030
0.305	97.500
0.298	95.911
0.298	95.381
0.295	95.911
0.289	94.851
0.281	93.261
0.278	93.261
0.263	91.671
0.267	92.201
0.272	92.201
0.267	92.201
0.272	91.671
0.249	90.612
0.244	90.082
0.246	89.552
0.247	89.022
0.240	89.022
0.240	88.492
0.240	87.432
0.237	87.962
0.232	86.902
0.215	85.313
0.220	84.253
0.205	83.193
0.211	83.193
0.199	82.133
0.188	81.604
0.191	80.544
0.189	80.014
0.183	80.014
0.179	79.484
0.189	79.484
0.183	79.484
0.174	78.954
0.165	77.894
0.163	76.305
0.157	75.775
0.156	74.715
0.153	74.715
0.151	74.715
0.137	73.655
0.148	73.125
0.147	72.065
0.139	72.595
0.144	72.595
0.139	72.065
0.124	70.476
0.128	69.946
0.122	69.416
0.113	68.356
0.119	67.826
0.110	66.767
0.107	66.237
0.104	66.237
0.096	65.177
0.101	64.117
0.093	63.587
0.096	64.117
0.089	64.117
0.096	63.587
0.082	61.997
0.084	61.468
0.072	59.878
0.078	59.348
0.072	57.758
0.066	57.228
0.052	56.699
0.060	56.699
0.050	55.639
0.055	55.109
0.052	55.109
0.043	54.579
0.049	53.519
0.040	52.459
0.035	51.400
0.026	49.810
0.029	49.810
0.031	49.810
0.026	49.280
0.018	47.160
0.015	46.631
0.005	43.451
-0.002	42.921
-0.002	42.391
0.002	42.391
-0.005	41.862
-0.008	41.862
0.005	41.862
0.005	42.391
-0.005	42.391
0.003	42.391
0.000	41.862
-0.006	42.391
0.002	41.332
-0.002	41.862
-0.002	41.862
-0.006	41.862
0.002	41.332
0.005	41.862
-0.003	42.391
0.006	41.332
0.003	41.862
-0.008	41.862
0.000	41.862
0.000	42.391
-0.006	41.862
0.000	41.862
-0.006	41.862
0.002	41.332
-0.005	41.862
0.003	41.862
0.005	41.862
-0.008	41.862
-0.006	41.862
0.002	41.862
-0.003	41.862
0.000	41.862
0.002	41.862
-0.006	41.332
0.002	41.862
0.000	41.862
-0.006	41.862
0.005	41.862
-0.002	41.862
-0.008	41.862
0.000	41.862
-0.002	41.862
0.003	41.862
-0.005	41.862
-0.002	41.862
-0.003	41.862
-0.006	40.272
-0.005	40.272
-0.014	39.212
-0.014	38.152
-0.011	37.622
-0.023	37.093
-0.018	37.093
-0.015	37.622
-0.024	37.093
-0.024	36.563
-0.024	35.503
-0.026	34.973
-0.032	34.973
-0.023	34.443
-0.029	34.973
-0.040	34.973
-0.038	32.853
-0.035	32.323
-0.031	32.323
-0.035	32.853
-0.020	33.913
-0.020	33.913
-0.020	33.913
-0.014	33.913
-0.026	32.853
-0.026	32.853
-0.027	33.383
-0.021	32.853
-0.055	32.853
-0.067	25.965
-0.076	23.315
-0.075	23.315
-0.072	22.256
-0.087	20.666
-0.086	20.666
-0.082	20.136
-0.084	19.606
-0.082	19.606
-0.090	18.546
-0.075	19.606
-0.086	18.016
-0.093	18.016
-0.092	18.016
-0.092	16.427
-0.101	15.367
-0.093	15.367
-0.102	15.367
-0.102	14.837
-0.107	13.777
-0.113	12.717
-0.111	11.128
-0.119	10.598
-0.121	10.068
-0.121	9.538
-0.111	10.068
-0.108	10.068
-0.108	10.068
-0.107	10.598
-0.142	7.948
-0.154	2.120
-0.160	-1.590
-0.157	-2.120
-0.168	-2.649
-0.179	-4.769
-0.166	-4.769
-0.180	-5.829
-0.188	-8.478
-0.189	-8.478
-0.188	-9.008
-0.197	-10.598
-0.203	-11.128
-0.206	-11.658
-0.206	-12.717
-0.203	-13.777
-0.221	-15.367
-0.226	-16.427
-0.224	-18.546
-0.223	-18.546
-0.229	-19.076
-0.228	-19.076
-0.232	-19.076
-0.226	-20.136
-0.228	-20.666
-0.241	-21.726
-0.240	-22.785
-0.244	-24.905
-0.257	-24.905
-0.253	-25.435
-0.252	-26.495
-0.264	-28.084
-0.275	-29.144
-0.278	-30.734
-0.275	-31.264
-0.276	-31.794
-0.284	-31.794
-0.278	-32.323
-0.290	-33.913
-0.290	-34.443
-0.284	-34.443
-0.289	-34.973
-0.296	-36.033
-0.307	-37.622
-0.301	-39.212
-0.312	-39.212
-0.313	-39.742
-0.312	-41.332
-0.324	-42.391
-0.331	-43.451
-0.319	-44.511
-0.331	-44.511
-0.330	-45.041
-0.331	-45.041
-0.327	-45.571
-0.336	-46.101
-0.336	-46.101
-0.330	-46.101
-0.334	-46.101
-0.337	-46.101
-0.337	-46.101
-0.334	-46.101
-0.331	-46.101
-0.345	-48.220
-0.357	-50.340
-0.357	-51.930
-0.357	-52.989
-0.366	-52.989
-0.363	-53.519
-0.370	-54.049
-0.370	-55.109
-0.373	-55.109
-0.370	-55.639
-0.385	-56.699
-0.374	-56.699
-0.388	-57.228
-0.383	-58.288
-0.392	-58.818
-0.388	-59.348
-0.403	-60.408
-0.394	-60.408
-0.396	-60.938
-0.399	-60.938
-0.402	-61.468
-0.405	-61.468
-0.414	-63.057
-0.411	-63.587
-0.412	-64.117
-0.408	-64.117
-0.412	-64.117
-0.421	-64.647
-0.429	-66.237
-0.421	-66.237
-0.429	-67.296
-0.435	-68.356
-0.444	-69.416
-0.440	-71.006
-0.452	-71.536
-0.454	-71.536
-0.450	-73.125
-0.455	-73.125
-0.460	-73.655
-0.455	-74.185
-0.463	-74.715
-0.469	-75.245
-0.469	-75.245
-0.463	-75.245
-0.466	-75.775
-0.473	-75.245
-0.463	-75.775
-0.461	-75.775
-0.476	-75.775
-0.473	-76.305
-0.467	-77.364
-0.481	-76.834
-0.481	-77.894
-0.483	-78.424
-0.481	-78.954
-0.483	-78.424
-0.489	-78.954
-0.487	-78.954
-0.493	-81.074
-0.502	-82.133
-0.505	-82.663
-0.516	-84.253
-0.510	-84.253
-0.524	-85.313
-0.524	-85.843
-0.531	-86.902
-0.527	-87.432
-0.530	-87.432
-0.538	-88.492
-0.541	-88.492
-0.531	-89.022
-0.545	-89.022
-0.539	-89.552
-0.539	-89.552
-0.536	-89.552
-0.542	-89.552
-0.534	-89.552
-0.545	-91.142
-0.559	-91.671
-0.560	-92.201
-0.559	-93.261
-0.571	-94.321
-0.570	-94.321
-0.573	-94.851
-0.573	-95.381
-0.577	-95.911
-0.579	-96.441
-0.580	-96.441
-0.588	-97.500
-0.594	-98.030
-0.588	-98.560
-0.591	-98.560
-0.597	-99.090
-0.603	-100.150
-0.593	-99.620
-0.593	-99.620
-0.609	-100.680
-0.628	-102.799
-0.620	-103.329
-0.620	-103.329
-0.626	-103.329
-0.629	-103.859
-0.622	-104.389
-0.634	-104.919
-0.628	-104.919
-0.632	-105.449
-0.637	-106.508
-0.654	-107.038
-0.643	-107.038
-0.646	-107.038
-0.641	-107.038
-0.644	-107.038
-0.652	-107.568
-0.667	-109.688
-0.673	-110.218
-0.684	-112.337
-0.681	-112.337
-0.698	-113.397
-0.698	-113.927
-0.695	-114.987
-0.704	-114.987
-0.715	-116.576
-0.716	-117.106
-0.718	-117.106
-0.715	-117.106
-0.722	-117.106
-0.716	-117.106
-0.721	-117.106
-0.718	-117.106
-0.716	-117.106
-0.716	-117.106
-0.713	-117.106
-0.721	-117.106
-0.712	-117.106
-0.719	-117.106
-0.722	-117.106
-0.718	-117.106
-0.713	-117.106
-0.722	-117.106
-0.716	-117.106
-0.718	-117.106
-0.716	-117.106
-0.721	-117.636
-0.715	-117.636
-0.727	-117.636
-0.735	-119.226
-0.741	-119.756
-0.754	-121.345
-0.751	-121.875
-0.771	-123.465
-0.771	-123.995
-0.770	-123.995
-0.767	-124.525
-0.777	-125.055
-0.790	-126.115
-0.799	-127.174
-0.803	-127.704
-0.814	-129.294
-0.812	-130.354
-0.829	-130.354
-0.825	-130.884
-0.820	-130.884
-0.826	-131.413
-0.838	-131.943
-0.838	-132.473
-0.844	-133.003
-0.841	-133.533
-0.860	-133.533
-0.858	-134.063
-0.852	-134.593
-0.857	-134.063
-0.863	-134.063
-0.866	-135.653
-0.869	-135.653
-0.873	-136.182
-0.881	-136.712
-0.883	-136.712
-0.890	-137.242
-0.895	-137.772
-0.896	-138.832
-0.899	-138.832
-0.904	-139.362
-0.912	-139.892
-0.913	-140.422
-0.913	-140.952
-0.928	-141.481
-0.925	-141.481
-0.933	-142.011
-0.944	-142.541
-0.944	-143.071
-0.941	-143.071
-0.941	-144.131
-0.954	-143.601
-0.954	-144.661
-0.957	-144.661
-0.956	-144.661
-0.967	-145.191
-0.964	-145.191
-0.976	-146.250
-0.979	-146.780
-0.986	-147.840
-0.985	-147.840
-1.000	-147.840
-0.991	-148.900
-1.002	-148.900
-1.011	-149.430
-1.014	-149.960
-1.009	-149.960
-1.019	-150.490
-1.017	-150.490
-1.028	-151.549
-1.028	-151.549
-1.038	-152.079
-1.035	-152.609
-1.048	-153.139
-1.058	-153.139
-1.064	-154.199
-1.064	-154.729
-1.064	-155.259
-1.070	-155.259
-1.067	-154.729
-1.061	-154.729
-1.075	-154.729
-1.066	-155.259
-1.066	-155.259
-1.063	-155.259
-1.070	-155.259
-1.064	-154.729
-1.066	-154.729
-1.075	-154.729
-1.067	-155.259
-1.070	-155.259
-1.069	-155.259
-1.066	-155.259
-1.066	-155.259
-1.067	-155.259
-1.070	-155.789
-1.058	-155.259
-1.066	-154.729
-1.067	-155.259
-1.061	-154.729
-1.070	-155.259
-1.061	-155.259
-1.061	-155.259
-1.067	-154.729
-1.067	-155.259
-1.075	-155.259
-1.061	-155.259
-1.069	-154.729
-1.066	-155.259
-1.067	-155.259
-1.061	-155.259
-1.074	-155.259
-1.072	-155.259
-1.064	-155.259
-1.069	-155.259
-1.066	-155.259
-1.069	-154.729
-1.061	-155.789
-1.072	-155.259
-1.061	-155.259
-1.069	-155.259
-1.072	-155.259
-1.064	-155.259
-1.070	-154.729
-1.064	-155.259
-1.070	-155.259
-1.058	-154.729
-1.057	-154.729
-1.057	-154.729
-1.054	-154.729
-1.045	-154.729
-1.038	-154.199
-1.046	-153.669
-1.037	-153.669
-1.037	-154.199
-1.043	-154.199
-1.035	-154.199
-1.032	-153.669
-1.025	-153.669
-1.029	-153.669
-1.020	-153.139
-1.029	-153.669
-1.022	-153.669
-1.014	-153.139
-1.019	-153.139
-1.017	-153.139
-1.016	-153.139
-1.012	-153.139
-1.012	-153.139
-1.012	-152.609
-1.002	-153.139
-1.009	-152.609
-1.003	-152.609
-0.999	-152.609
-0.994	-152.609
-1.005	-152.609
-0.990	-152.079
-0.988	-151.549
-0.991	-152.079
-0.974	-151.549
-0.985	-151.549
-0.977	-151.549
-0.970	-151.549
-0.976	-151.549
-0.980	-151.549
-0.971	-151.549
-0.979	-151.020
-0.976	-151.549
-0.965	-151.020
-0.971	-151.020
-0.964	-150.490
-0.956	-150.490
-0.957	-150.490
-0.959	-150.490
-0.951	-150.490
-0.939	-149.960
-0.951	-149.960
-0.939	-149.960
-0.941	-149.960
-0.944	-149.960
-0.935	-149.430
-0.927	-149.960
-0.930	-148.900
-0.936	-148.900
-0.924	-148.900
-0.918	-148.900
-0.922	-148.900
-0.907	-148.370
-0.915	-148.370
-0.909	-148.370
-0.912	-148.370
-0.906	-147.840
-0.899	-147.840
-0.904	-147.840
-0.892	-147.840
-0.893	-147.840
-0.893	-147.840
-0.886	-147.310
-0.886	-146.780
-0.884	-147.310
-0.883	-147.310
-0.870	-146.780
-0.849	-145.721
-0.843	-145.191
-0.837	-144.661
-0.828	-144.131
-0.838	-144.131
-0.835	-144.131
-0.822	-143.601
-0.825	-143.601
-0.812	-143.601
-0.820	-143.071
-0.819	-143.601
-0.815	-143.071
-0.803	-143.071
-0.805	-143.071
-0.791	-142.541
-0.794	-142.541
-0.791	-142.011
-0.790	-142.541
-0.793	-142.011
-0.785	-142.011
-0.794	-142.011
-0.783	-141.481
-0.782	-140.952
-0.776	-141.481
-0.782	-140.952
-0.779	-141.481
-0.777	-141.481
-0.768	-140.422
-0.757	-140.422
-0.767	-140.952
-0.748	-139.892
-0.751	-139.892
-0.750	-139.362
-0.742	-139.362
-0.739	-139.362
-0.739	-138.832
-0.736	-138.302
-0.722	-138.302
-0.724	-138.302
-0.719	-137.242
-0.715	-137.772
-0.710	-137.242
-0.710	-137.242
-0.712	-137.242
-0.704	-136.712
-0.701	-136.712
-0.699	-136.182
-0.696	-136.182
-0.699	-136.182
-0.690	-135.653
-0.684	-135.123
-0.661	-134.593
-0.663	-134.593
-0.657	-134.063
-0.649	-133.533
-0.651	-133.003
-0.631	-132.473
-0.632	-132.473
-0.637	-131.943
-0.634	-132.473
-0.628	-131.413
-0.620	-130.884
-0.618	-130.884
-0.608	-130.884
-0.605	-130.354
-0.600	-129.824
-0.602	-129.824
-0.597	-129.294
-0.593	-129.294
-0.585	-129.294
-0.588	-129.824
-0.579	-128.764
-0.577	-128.234
-0.576	-128.234
-0.573	-127.704
-0.567	-127.174
-0.559	-127.174
-0.559	-126.644
-0.556	-126.644
-0.562	-126.644
-0.550	-126.644
-0.553	-126.115
-0.559	-126.115
-0.545	-126.115
-0.553	-126.115
-0.551	-125.585
-0.553	-125.585
-0.538	-125.585
-0.524	-123.995
-0.519	-123.465
-0.513	-123.465
-0.515	-122.405
-0.501	-122.405
-0.495	-121.875
-0.492	-121.875
-0.483	-120.286
-0.481	-120.286
-0.475	-119.756
-0.463	-118.696
-0.461	-118.696
-0.460	-118.696
-0.469	-118.166
-0.457	-118.166
-0.446	-117.106
-0.447	-117.106
-0.429	-115.517
-0.423	-114.457
-0.414	-113.927
-0.411	-113.397
-0.396	-112.337
-0.397	-111.807
-0.389	-110.748
-0.389	-111.278
-0.374	-110.218
-0.380	-109.688
-0.366	-108.628
-0.370	-108.628
-0.362	-107.568
-0.353	-107.568
-0.356	-106.508
-0.347	-106.508
-0.347	-106.508
-0.351	-106.508
-0.354	-106.508
-0.345	-106.508
-0.339	-106.508
-0.353	-106.508
-0.344	-105.979
-0.342	-105.449
-0.339	-105.979
-0.341	-105.449
-0.330	-104.919
-0.321	-104.389
-0.324	-103.859
-0.313	-103.329
-0.310	-102.799
-0.318	-102.269
-0.315	-102.799
-0.307	-102.269
-0.313	-101.739
-0.308	-101.739
-0.307	-102.269
-0.298	-101.210
-0.307	-101.210
-0.304	-101.210
-0.298	-101.210
-0.302	-100.680
-0.298	-100.150
-0.284	-100.150
-0.292	-99.620
-0.293	-99.620
-0.278	-99.090
-0.283	-98.560
-0.270	-98.030
-0.279	-98.030
-0.279	-98.030
-0.270	-98.030
-0.275	-97.500
-0.275	-96.970
-0.267	-97.500
-0.279	-97.500
-0.266	-97.500
-0.267	-97.500
-0.269	-97.500
-0.263	-95.911
-0.257	-95.381
-0.261	-95.911
-0.257	-95.381
-0.260	-95.381
-0.261	-95.381
-0.247	-94.851
-0.255	-94.851
-0.257	-94.851
-0.252	-94.851
-0.250	-94.321
-0.246	-93.791
-0.252	-93.791
-0.243	-93.261
-0.243	-93.261
-0.235	-92.201
-0.220	-91.142
-0.217	-90.612
-0.220	-90.082
-0.212	-89.552
-0.208	-88.492
-0.215	-89.022
-0.209	-88.492
-0.203	-87.432
-0.197	-87.432
-0.195	-85.843
-0.185	-85.313
-0.185	-84.783
-0.180	-84.253
-0.171	-82.663
-0.170	-82.133
-0.163	-81.604
-0.163	-80.544
-0.160	-80.014
-0.153	-80.014
-0.154	-78.954
-0.147	-78.424
-0.148	-78.424
-0.139	-77.364
-0.139	-77.364
-0.140	-76.834
-0.139	-76.305
-0.128	-75.245
-0.128	-74.715
-0.131	-74.185
-0.121	-73.655
-0.118	-73.125
-0.116	-73.125
-0.115	-72.595
-0.104	-71.006
-0.105	-71.006
-0.093	-69.416
-0.084	-67.296
-0.087	-66.237
-0.079	-65.177
-0.073	-64.117
-0.075	-63.587
-0.066	-62.527
-0.066	-61.468
-0.060	-60.408
-0.055	-60.408
-0.058	-58.818
-0.041	-57.758
-0.041	-55.639
-0.032	-54.049
-0.027	-52.989
-0.024	-51.930
-0.012	-51.400
-0.014	-50.340
-0.011	-48.220
-0.002	-48.220
-0.012	-48.750
-0.003	-48.220
-0.005	-47.690
-0.006	-46.631
-0.002	-46.631
-0.002	-46.631
0.005	-46.631
-0.006	-46.101
0.006	-46.631
-0.003	-46.631
-0.005	-46.101
0.003	-46.101
-0.002	-46.631
-0.003	-46.101
-0.006	-46.631
-0.006	-46.101
0.000	-46.101
0.003	-46.631
-0.009	-46.101
0.000	-46.631
0.002	-46.631
-0.002	-46.631
0.002	-46.631
-0.005	-46.631
0.003	-46.631
0.000	-46.101
-0.005	-46.631
0.000	-46.631
0.002	-46.631
0.002	-46.101
-0.003	-46.631
0.005	-46.101
-0.002	-46.101
0.006	-46.631
-0.006	-46.101
0.000	-46.101
0.002	-46.631
0.008	-46.101
0.003	-44.511
0.018	-41.862
0.044	-37.093
0.053	-32.323
0.069	-28.614
0.090	-24.375
0.095	-22.256
0.092	-21.196
0.092	-20.666
0.099	-20.136
0.108	-18.016
0.127	-13.777
0.137	-10.598
0.137	-10.068
0.144	-7.948
0.165	-3.709
0.160	-2.120
0.170	-1.060
0.176	0.530
0.177	1.590
0.179	1.590
0.183	2.120
0.189	5.829
0.192	6.889
0.206	8.478
0.200	9.538
0.205	10.068
0.218	11.128
0.212	12.188
0.224	12.717
0.221	13.777
0.223	13.777
0.235	14.837
0.228	14.837
0.224	15.367
0.232	15.367
0.232	15.897
0.237	16.957
0.241	18.546
0.238	18.546
0.252	20.666
0.249	21.196
0.250	21.196
0.247	21.196
0.255	22.256
0.252	22.785
0.266	22.785
0.250	22.785
0.260	23.315
0.273	25.435
0.275	27.025
0.270	27.025
0.292	29.674
0.295	30.734
0.295	31.794
0.304	32.853
0.301	33.913
0.307	34.443
0.298	34.443
0.308	34.973
0.312	35.503
0.305	36.033
0.321	38.152
0.324	39.212
0.334	40.802
0.341	41.332
0.331	42.391
0.348	43.451
0.342	44.511
0.357	44.511
0.354	45.041
0.345	45.571
0.357	46.101
0.351	46.631
0.359	46.631
0.360	47.160
0.370	49.810
0.376	51.400
0.377	52.459
0.388	52.989
0.388	53.519
0.394	55.109
0.402	56.699
0.397	57.758
0.405	57.758
0.411	59.348
0.418	61.997
0.421	63.587
0.431	63.587
0.432	63.587
0.438	63.587
0.432	64.117
0.441	64.647
0.431	65.177
0.435	65.177
0.447	66.237
0.444	67.296
0.454	67.826
0.449	67.826
0.452	68.886
0.463	69.946
0.467	70.476
0.469	72.065
0.476	72.595
0.483	74.185
0.493	74.715
0.493	75.245
0.496	76.834
0.501	77.894
0.502	77.894
0.499	78.424
0.509	79.484
0.516	79.484
0.507	80.014
0.509	80.014
0.527	80.544
0.528	81.074
0.522	82.133
0.531	82.663
0.533	82.663
0.524	82.663
0.527	83.193
0.536	84.253
0.530	84.783
0.533	84.783
0.542	84.783
0.544	85.313
0.536	85.313
0.544	85.313
0.547	85.843
0.556	87.432
0.556	88.492
0.557	89.022
0.562	89.022
0.565	88.492
0.559	89.022
0.579	90.612
0.588	93.261
0.596	94.321
0.599	94.321
0.614	96.441
0.609	98.030
0.620	98.030
0.620	98.030
0.614	98.030
0.623	98.030
0.629	99.090
0.626	99.620
0.637	100.680
0.644	101.739
0.640	102.269
0.646	102.269
0.641	102.269
0.651	102.799
0.654	103.859
0.652	103.859
0.663	103.859
0.657	104.389
0.661	104.389
0.660	105.979
0.664	105.979
0.675	106.508
0.669	106.508
0.676	107.038
0.684	107.568
0.670	107.568
0.686	108.098
0.692	108.628
0.693	109.158
0.692	109.688
0.692	109.158
0.710	110.748
0.699	110.748
0.707	111.278
0.713	112.337
0.712	111.807
0.713	111.807
0.712	112.337
0.715	112.337
0.713	111.807
0.712	111.807
0.707	111.807
0.716	112.337
0.710	111.807
0.712	112.337
0.709	112.337
0.716	111.807
0.706	111.807
0.716	112.337
0.713	112.337
0.713	112.867
0.727	113.397
0.730	113.927
0.725	114.987
0.742	114.457
0.736	114.987
0.744	116.047
0.748	116.576
0.748	116.576
0.747	117.106
0.757	117.636
0.756	117.636
0.759	118.166
0.765	118.166
0.767	119.226
0.765	118.696
0.767	119.226
0.768	119.226
0.774	120.286
0.765	119.756
0.779	119.756
0.774	120.816
0.776	120.816
0.793	121.345
0.790	121.345
0.790	121.875
0.785	121.875
0.791	121.875
0.794	122.405
0.788	122.405
0.797	122.405
0.799	122.935
0.806	123.465
0.812	124.525
0.811	124.525
0.820	125.585
0.829	126.644
0.834	127.704
0.840	128.234
0.843	127.704
0.838	128.764
0.848	128.234
0.846	128.764
0.852	128.764
0.848	128.764
0.860	129.824
0.857	130.354
0.867	130.884
0.880	131.413
0.883	132.473
0.878	132.473
0.887	133.003
0.896	134.063
0.895	134.063
0.899	134.063
0.898	135.123
0.904	135.123
0.910	135.123
0.909	135.123
0.910	136.182
0.921	136.182
0.919	136.182
0.925	137.242
0.927	137.242
0.925	137.242
0.932	137.772
0.944	138.302
0.948	138.832
0.956	138.832
0.956	140.422
0.967	140.952
0.962	141.481
0.967	142.011
0.976	142.011
0.991	143.071
0.986	143.071
0.985	143.071
1.000	143.601
1.000	143.601
0.993	144.131
1.012	144.661
1.006	145.721
1.019	145.721
1.023	146.780
1.029	147.310
1.031	146.780
1.038	148.370
1.066	149.960
1.063	150.490
1.066	150.490
1.064	150.490
1.070	150.490
1.060	150.490
1.066	150.490
1.066	150.490
1.058	149.960
1.072	150.490
1.064	150.490
1.066	150.490
1.066	150.490
1.070	149.960
1.061	150.490
1.069	150.490
1.061	150.490
1.072	151.020
