Current	Flux density B
I/A	B/mT

0.111	-1.060
0.107	-0.530
0.110	-1.060
0.121	-0.000
0.124	-0.000
0.124	-0.000
0.131	-0.000
0.131	-0.530
0.122	-0.000
0.125	-0.000
0.119	-0.000
0.133	-0.000
0.125	0.530
0.140	0.530
0.147	1.060
0.145	1.590
0.148	1.590
0.160	1.590
0.159	2.120
0.154	1.590
0.157	1.590
0.159	2.120
0.165	2.120
0.165	2.649
0.163	3.179
0.166	3.179
0.173	3.709
0.163	3.709
0.176	4.769
0.177	5.829
0.188	5.829
0.185	7.419
0.191	7.948
0.183	7.948
0.183	8.478
0.180	7.948
0.186	7.948
0.191	8.478
0.199	9.538
0.197	10.068
0.203	10.598
0.202	12.717
0.209	13.777
0.215	14.837
0.209	15.897
0.215	16.427
0.228	17.486
0.234	18.016
0.223	18.546
0.228	19.606
0.235	20.136
0.234	20.666
0.234	21.196
0.243	23.315
0.244	23.845
0.247	23.845
0.243	24.375
0.250	24.905
0.257	25.965
0.252	26.495
0.263	27.025
0.257	28.084
0.264	28.614
0.263	28.614
0.278	30.734
0.276	31.264
0.278	31.794
0.278	32.323
0.284	33.383
0.286	33.913
0.292	35.503
0.292	35.503
0.292	37.093
0.307	38.152
0.302	38.682
0.310	39.742
0.313	40.802
0.315	41.332
0.313	41.862
0.327	42.391
0.322	43.451
0.330	43.451
0.328	45.041
0.342	46.101
0.339	47.690
0.353	48.220
0.345	48.750
0.345	48.750
0.350	49.810
0.356	50.340
0.353	50.870
0.353	50.340
0.345	50.340
0.351	50.870
0.356	50.340
0.351	50.340
0.345	50.340
0.353	50.870
0.347	50.340
0.348	50.340
0.353	50.340
0.351	50.340
0.348	50.870
0.350	50.870
0.353	50.340
0.348	50.340
0.359	51.930
0.363	53.519
0.371	54.579
0.382	56.169
0.385	57.758
0.399	59.878
0.403	60.938
0.411	62.527
0.415	65.177
0.425	65.707
0.437	67.826
0.438	69.416
0.450	71.006
0.454	72.595
0.464	74.185
0.478	75.775
0.473	77.894
0.486	78.954
0.498	81.074
0.493	81.604
0.505	83.193
0.515	84.783
0.525	86.902
0.536	87.962
0.545	90.612
0.557	92.731
0.571	93.791
0.576	94.851
0.591	96.970
0.597	98.030
0.596	99.620
0.606	100.680
0.622	102.799
0.622	102.799
0.618	102.799
0.618	102.799
0.628	103.329
0.638	104.919
0.646	105.979
0.649	107.568
0.651	108.098
0.669	109.688
0.664	110.218
0.684	111.807
0.701	113.927
0.707	115.517
0.718	116.576
0.722	118.696
0.731	119.756
0.739	120.286
0.762	121.345
0.759	122.935
0.768	123.995
0.771	124.525
0.786	125.585
0.788	127.174
0.790	127.704
0.805	127.704
0.809	128.234
0.808	128.764
0.811	128.764
0.814	129.294
0.803	128.764
0.808	129.294
0.806	129.824
0.812	128.764
0.832	131.413
0.835	131.943
0.837	131.943
0.844	133.003
0.858	133.533
0.855	134.593
0.863	134.593
0.866	135.653
0.870	135.653
0.877	136.712
0.886	136.712
0.890	138.302
0.898	138.832
0.903	138.832
0.901	139.362
0.903	139.362
0.912	140.422
0.924	140.952
0.925	142.011
0.938	142.541
0.936	142.541
0.945	143.601
0.954	144.661
0.965	145.191
0.973	146.250
0.977	146.780
0.985	147.310
0.994	147.840
0.994	148.900
1.002	149.430
1.014	149.960
1.016	149.960
1.019	151.549
1.032	152.079
1.035	152.079
1.037	152.609
1.043	152.609
1.048	153.669
1.051	153.669
1.051	153.669
1.038	153.669
1.048	153.139
1.075	155.789
1.066	155.259
1.069	155.259
1.069	155.789
1.075	155.259
1.075	155.789
1.069	155.789
1.066	155.789
1.067	155.259
1.066	155.259
1.074	155.259
1.064	155.789
1.069	155.789
1.070	155.789
1.072	155.789
1.072	155.789
1.066	155.789
1.063	155.789
1.075	155.789
1.067	155.789
1.074	155.789
1.067	155.789
1.075	155.789
1.080	155.789
1.072	155.789
1.066	155.789
1.072	155.789
1.069	155.789
1.078	155.259
1.078	155.789
1.064	155.789
1.067	155.259
1.058	155.789
1.051	155.259
1.040	154.199
1.040	154.729
1.038	154.199
1.035	154.199
1.026	154.199
1.029	153.669
1.029	154.199
1.014	153.669
1.016	153.139
1.011	153.669
1.006	153.139
1.000	153.139
0.990	152.609
0.990	152.079
0.974	151.549
0.967	151.020
0.957	151.549
0.950	150.490
0.936	149.960
0.927	149.430
0.921	148.900
0.918	148.900
0.922	148.900
0.913	148.900
0.901	148.370
0.903	148.370
0.889	147.840
0.877	147.840
0.877	147.310
0.873	146.780
0.866	146.250
0.867	146.780
0.866	146.250
0.849	146.250
0.846	145.721
0.846	144.661
0.835	144.661
0.832	144.661
0.822	144.661
0.828	144.131
0.814	143.601
0.817	143.601
0.805	143.071
0.797	143.071
0.790	142.541
0.799	142.541
0.780	142.011
0.764	141.481
0.765	140.952
0.764	140.952
0.759	140.952
0.744	140.422
0.754	139.892
0.753	139.892
0.748	139.892
0.738	139.362
0.733	138.832
0.731	138.832
0.725	138.832
0.712	137.772
0.716	137.772
0.712	137.242
0.696	137.242
0.698	136.712
0.698	136.712
0.683	136.182
0.675	135.653
0.675	135.653
0.669	134.593
0.666	134.593
0.651	134.063
0.651	134.063
0.651	133.533
0.644	133.003
0.631	133.003
0.620	131.943
0.612	131.413
0.603	130.884
0.597	129.824
0.591	129.294
0.586	129.294
0.583	129.294
0.583	128.764
0.573	129.294
0.567	128.234
0.556	127.704
0.551	126.644
0.545	126.115
0.530	123.995
0.521	123.995
0.509	122.935
0.499	122.405
0.493	121.345
0.478	119.756
0.470	119.226
0.455	118.166
0.443	117.636
0.440	116.047
0.437	116.047
0.417	114.987
0.415	114.987
0.409	113.397
0.399	112.867
0.397	111.807
0.394	111.807
0.379	110.218
0.377	110.218
0.385	110.218
0.386	110.218
0.366	109.688
0.360	108.628
0.366	108.098
0.354	108.098
0.353	107.038
0.356	107.038
0.353	107.038
0.351	107.038
0.354	107.038
0.356	107.038
0.351	107.038
0.348	107.038
0.357	107.568
0.359	107.038
0.348	107.038
0.351	107.038
0.344	106.508
0.353	107.038
0.347	107.038
0.354	107.038
0.345	107.038
0.350	106.508
0.351	107.568
0.348	106.508
0.345	106.508
0.344	106.508
0.336	105.979
0.339	105.449
0.331	104.919
0.328	104.389
0.322	103.859
0.308	102.799
0.315	102.269
0.310	101.739
0.304	101.210
0.299	100.680
0.290	100.150
0.292	99.620
0.289	99.090
0.278	98.030
0.273	98.030
0.272	96.970
0.260	96.441
0.258	95.911
0.258	95.381
0.250	94.851
0.250	94.321
0.240	93.261
0.243	93.261
0.228	91.671
0.215	91.142
0.218	89.552
0.205	89.022
0.209	87.432
0.200	87.432
0.192	86.373
0.202	85.843
0.194	85.843
0.180	85.313
0.185	84.253
0.180	83.723
0.166	82.663
0.173	82.133
0.160	80.544
0.163	80.544
0.154	78.954
0.147	77.894
0.136	76.834
0.137	75.775
0.124	74.715
0.124	74.715
0.121	73.125
0.116	73.125
0.119	72.595
0.111	72.065
0.113	72.065
0.118	71.536
0.104	69.946
0.090	68.886
0.098	68.886
0.090	66.767
0.090	66.237
0.084	65.707
0.081	65.177
0.075	64.647
0.070	64.117
0.063	63.057
0.064	61.997
0.058	61.468
0.060	60.938
0.060	60.408
0.047	58.818
0.044	58.288
0.049	57.228
0.043	56.699
0.037	55.639
0.034	55.109
0.035	54.579
0.027	54.049
0.024	52.989
0.024	51.930
0.015	50.870
0.011	48.750
0.005	48.220
0.005	47.690
-0.005	47.160
-0.005	46.101
0.002	46.631
-0.000	46.631
-0.002	47.160
0.008	46.631
0.003	46.101
-0.000	46.631
0.002	46.631
-0.002	46.101
0.006	46.631
-0.002	46.101
0.002	46.101
-0.000	46.101
0.006	46.631
-0.003	46.631
0.002	46.631
-0.003	46.101
0.005	46.631
0.006	46.631
0.005	46.101
-0.005	46.631
0.005	46.631
0.005	46.631
0.002	46.101
0.002	46.631
-0.002	46.101
-0.005	46.631
0.005	46.101
0.003	46.101
0.006	47.160
-0.000	46.631
0.006	46.631
0.005	46.631
0.002	46.631
0.006	46.631
-0.000	46.101
0.008	46.631
0.005	46.101
-0.000	46.631
-0.000	46.631
0.006	46.631
-0.000	46.631
0.002	46.631
0.005	46.101
0.003	46.631
-0.005	46.631
-0.000	46.631
0.005	46.631
-0.003	46.101
-0.005	46.631
0.003	46.631
-0.002	46.631
-0.000	46.631
0.006	46.101
0.003	46.101
-0.005	46.101
0.002	46.631
0.003	46.101
-0.005	46.631
-0.003	46.631
0.002	46.631
-0.005	46.101
0.002	46.101
-0.005	46.631
0.002	46.631
0.002	46.101
0.002	46.101
0.002	47.160
-0.002	46.631
-0.003	46.631
0.002	46.101
-0.000	46.631
0.002	46.101
-0.006	46.101
0.002	46.631
0.003	46.631
0.003	46.101
-0.005	46.631
0.005	46.631
0.003	46.101
0.002	46.631
0.005	46.631
-0.005	46.631
0.006	46.631
0.003	46.101
-0.005	46.631
-0.002	46.631
0.008	46.101
-0.000	46.101
-0.003	46.631
0.002	46.101
0.006	46.101
-0.003	46.631
-0.005	46.631
0.002	46.631
-0.005	46.631
-0.003	46.631
0.002	46.101
-0.000	46.101
0.002	46.101
-0.000	46.631
-0.000	46.101
-0.005	46.101
-0.002	46.631
0.002	46.101
-0.005	46.631
-0.000	46.101
-0.000	46.631
-0.000	46.631
0.003	46.631
0.003	46.101
-0.003	46.631
0.002	46.631
0.002	46.101
0.005	46.101
-0.000	46.631
-0.000	46.631
-0.000	46.631
0.008	46.631
-0.002	46.631
-0.000	46.101
0.002	46.101
0.002	46.631
0.008	46.631
-0.003	46.101
0.005	46.631
-0.000	46.101
0.006	46.631
0.006	46.101
-0.003	46.631
-0.006	46.101
-0.005	46.631
-0.000	46.101
0.003	46.631
-0.005	46.631
0.003	46.101
-0.002	46.631
-0.000	46.631
-0.000	46.631
0.009	47.160
0.008	46.101
-0.003	46.631
-0.002	46.631
0.008	46.631
0.002	46.101
-0.006	47.160
0.002	46.631
0.005	46.631
-0.005	46.101
0.002	46.101
0.002	46.101
0.003	46.631
0.002	46.631
0.003	46.631
0.003	46.631
-0.003	46.631
0.005	46.101
0.009	46.631
0.002	46.101
0.002	46.101
-0.005	46.631
-0.000	46.101
0.003	46.101
0.003	46.631
-0.002	46.101
-0.000	46.631
0.002	46.101
0.005	46.101
0.002	46.631
0.006	46.631
-0.006	46.631
0.006	46.101
0.006	46.101
-0.002	46.631
-0.003	46.631
0.006	46.101
0.002	46.631
0.005	46.631
-0.005	46.631
0.002	46.101
-0.005	46.101
0.003	46.101
0.002	46.631
-0.000	46.631
0.002	46.101
0.002	46.631
0.006	46.101
-0.003	46.631
-0.005	46.101
0.003	46.101
-0.005	46.101
-0.006	46.101
0.005	46.631
-0.000	46.631
-0.003	46.101
-0.000	46.101
-0.005	46.631
0.003	46.631
0.006	46.101
-0.005	46.101
0.005	45.571
0.003	45.571
-0.011	45.041
-0.006	43.981
-0.011	42.921
-0.015	42.391
-0.020	41.862
-0.021	41.332
-0.023	39.742
-0.035	38.152
-0.034	37.622
-0.041	37.093
-0.037	35.503
-0.040	34.973
-0.046	34.443
-0.050	33.913
-0.052	33.383
-0.053	32.853
-0.047	32.323
-0.064	30.734
-0.063	30.734
-0.060	30.204
-0.070	28.614
-0.070	28.084
-0.073	28.084
-0.073	27.025
-0.070	27.025
-0.079	25.435
-0.078	25.435
-0.089	24.905
-0.092	23.845
-0.084	22.785
-0.095	22.785
-0.092	22.256
-0.093	22.256
-0.090	21.726
-0.096	21.726
-0.101	20.136
-0.101	19.606
-0.101	19.076
-0.102	19.076
-0.104	19.076
-0.107	18.546
-0.116	16.957
-0.111	16.957
-0.108	16.427
-0.108	15.367
-0.110	15.367
-0.119	15.367
-0.113	15.367
-0.118	14.837
-0.127	13.777
-0.127	12.188
-0.122	12.188
-0.133	11.658
-0.134	11.128
-0.136	10.598
-0.139	10.598
-0.139	9.538
-0.139	9.008
-0.134	9.008
-0.147	8.478
-0.140	7.948
-0.137	7.419
-0.145	7.948
-0.144	6.889
-0.151	6.889
-0.151	6.889
-0.150	6.359
-0.147	5.829
-0.157	4.769
-0.154	4.239
-0.162	3.709
-0.156	3.709
-0.162	3.709
-0.159	2.120
-0.173	1.590
-0.171	0.530
-0.176	-0.000
-0.173	-0.530
-0.180	-1.060
-0.173	-1.590
-0.173	-1.590
-0.177	-1.590
-0.173	-1.590
-0.185	-1.590
-0.182	-2.649
-0.191	-4.239
-0.188	-5.299
-0.189	-4.769
-0.194	-6.889
-0.200	-6.889
-0.200	-6.889
-0.195	-6.889
-0.199	-7.948
-0.203	-8.478
-0.212	-9.538
-0.212	-11.658
-0.229	-13.777
-0.234	-14.307
-0.232	-16.427
-0.240	-16.957
-0.232	-18.016
-0.241	-18.016
-0.244	-18.016
-0.235	-18.016
-0.241	-19.076
-0.257	-21.726
-0.261	-22.785
-0.267	-23.845
-0.269	-25.965
-0.267	-26.495
-0.279	-28.614
-0.295	-31.264
-0.296	-31.264
-0.293	-32.853
-0.304	-34.443
-0.321	-36.033
-0.318	-38.152
-0.322	-38.682
-0.322	-40.272
-0.325	-40.802
-0.324	-40.272
-0.331	-40.272
-0.324	-40.272
-0.324	-40.802
-0.324	-40.272
-0.333	-40.272
-0.325	-40.272
-0.327	-40.802
-0.324	-40.272
-0.325	-40.802
-0.322	-40.802
-0.328	-40.272
-0.324	-40.272
-0.327	-40.272
-0.327	-40.802
-0.322	-40.272
-0.327	-40.802
-0.342	-41.862
-0.345	-43.981
-0.342	-45.041
-0.354	-45.571
-0.363	-47.690
-0.366	-48.750
-0.365	-49.810
-0.370	-50.870
-0.376	-51.400
-0.382	-51.930
-0.371	-52.459
-0.382	-52.989
-0.389	-53.519
-0.383	-53.519
-0.385	-54.049
-0.391	-54.579
-0.394	-55.639
-0.394	-55.639
-0.391	-56.169
-0.408	-57.228
-0.405	-57.758
-0.408	-58.288
-0.409	-58.288
-0.409	-59.348
-0.408	-60.408
-0.415	-60.408
-0.421	-60.938
-0.418	-60.938
-0.414	-61.468
-0.425	-62.527
-0.426	-62.527
-0.431	-63.587
-0.432	-64.117
-0.438	-64.647
-0.432	-65.177
-0.446	-65.707
-0.444	-66.237
-0.438	-66.767
-0.444	-67.826
-0.449	-67.826
-0.454	-68.356
-0.461	-68.886
-0.461	-69.416
-0.460	-69.416
-0.457	-69.946
-0.469	-69.946
-0.466	-71.006
-0.469	-72.065
-0.473	-72.065
-0.480	-73.125
-0.483	-74.185
-0.476	-74.185
-0.490	-75.245
-0.492	-75.775
-0.486	-75.775
-0.492	-75.775
-0.495	-76.305
-0.495	-76.305
-0.495	-77.364
-0.507	-77.894
-0.513	-78.954
-0.513	-80.544
-0.512	-80.544
-0.519	-81.074
-0.513	-81.074
-0.516	-81.604
-0.528	-82.133
-0.522	-82.133
-0.531	-82.663
-0.527	-83.723
-0.538	-84.783
-0.541	-85.313
-0.554	-86.373
-0.570	-90.082
-0.582	-91.671
-0.579	-92.201
-0.582	-92.201
-0.579	-92.731
-0.588	-92.731
-0.603	-94.851
-0.608	-96.441
-0.612	-96.970
-0.618	-98.560
-0.623	-99.090
-0.634	-100.150
-0.628	-100.150
-0.638	-100.680
-0.635	-101.739
-0.666	-104.389
-0.669	-105.979
-0.676	-107.568
-0.690	-108.628
-0.687	-108.628
-0.693	-109.158
-0.699	-110.218
-0.706	-110.748
-0.709	-111.807
-0.715	-113.397
-0.730	-113.397
-0.736	-113.927
-0.724	-114.457
-0.739	-114.987
-0.747	-116.047
-0.742	-116.047
-0.741	-116.047
-0.745	-116.576
-0.750	-116.576
-0.748	-117.106
-0.753	-118.166
-0.765	-118.696
-0.768	-119.226
-0.774	-119.226
-0.770	-119.756
-0.774	-119.756
-0.780	-120.816
-0.780	-120.816
-0.790	-121.875
-0.794	-122.405
-0.791	-122.935
-0.799	-122.935
-0.815	-124.525
-0.814	-124.525
-0.812	-125.585
-0.828	-126.115
-0.829	-126.644
-0.835	-127.174
-0.849	-128.234
-0.854	-128.764
-0.854	-129.294
-0.864	-129.824
-0.872	-131.413
-0.873	-131.413
-0.889	-133.003
-0.898	-134.063
-0.912	-135.123
-0.909	-135.653
-0.921	-136.712
-0.925	-137.242
-0.925	-137.242
-0.933	-137.242
-0.938	-138.302
-0.944	-138.832
-0.959	-140.422
-0.962	-140.422
-0.967	-140.952
-0.983	-142.011
-0.999	-143.601
-1.020	-145.721
-1.038	-147.310
-1.041	-148.370
-1.061	-149.430
-1.067	-149.960
-1.057	-149.430
-1.063	-149.960
-1.063	-149.960
-1.058	-149.960
-1.052	-149.960
-1.060	-149.960
-1.061	-149.960
-1.051	-149.960
-1.063	-149.960
-1.061	-150.490
-1.054	-149.960
-1.055	-149.960
-1.055	-149.960
-1.037	-149.430
-1.034	-148.900
-1.028	-148.900
-1.025	-148.900
-1.016	-148.370
-1.017	-148.370
-1.002	-148.370
-0.990	-147.310
-0.988	-147.310
-0.988	-146.780
-0.971	-146.780
-0.974	-146.250
-0.964	-146.250
-0.961	-146.250
-0.956	-145.721
-0.945	-145.191
-0.932	-144.661
-0.935	-145.191
-0.922	-144.131
-0.924	-144.131
-0.913	-143.601
-0.904	-143.071
-0.890	-143.071
-0.889	-142.011
-0.884	-142.541
-0.880	-142.011
-0.869	-142.011
-0.864	-141.481
-0.852	-140.422
-0.852	-140.422
-0.838	-139.892
-0.831	-139.892
-0.826	-139.362
-0.826	-139.362
-0.809	-138.302
-0.793	-137.772
-0.791	-136.712
-0.771	-136.712
-0.760	-136.182
-0.748	-135.653
-0.742	-134.593
-0.739	-134.593
-0.727	-134.063
-0.719	-133.003
-0.704	-132.473
-0.704	-131.943
-0.690	-131.943
-0.689	-131.413
-0.683	-130.884
-0.663	-129.294
-0.644	-128.764
-0.652	-128.234
-0.632	-127.704
-0.622	-127.174
-0.622	-126.115
-0.606	-126.115
-0.602	-124.525
-0.589	-124.525
-0.579	-123.465
-0.565	-122.405
-0.547	-121.875
-0.551	-121.345
-0.521	-119.756
-0.522	-118.696
-0.504	-117.636
-0.492	-116.576
-0.483	-115.517
-0.484	-115.517
-0.480	-115.517
-0.475	-115.517
-0.472	-114.987
-0.455	-113.927
-0.447	-112.867
-0.447	-111.807
-0.431	-110.748
-0.415	-109.688
-0.406	-108.628
-0.396	-107.568
-0.374	-105.449
-0.373	-104.919
-0.368	-104.389
-0.354	-103.859
-0.350	-102.799
-0.350	-101.739
-0.347	-102.269
-0.345	-102.269
-0.348	-101.739
-0.351	-101.739
-0.350	-102.269
-0.345	-101.739
-0.348	-102.269
-0.353	-101.739
-0.344	-101.739
-0.345	-101.739
-0.354	-102.269
-0.350	-101.739
-0.339	-101.210
-0.336	-101.210
-0.327	-100.150
-0.334	-99.620
-0.324	-99.090
-0.318	-98.560
-0.321	-98.560
-0.316	-98.030
-0.307	-97.500
-0.319	-98.030
-0.307	-97.500
-0.302	-96.441
-0.304	-96.441
-0.298	-95.911
-0.298	-95.911
-0.295	-95.381
-0.283	-94.851
-0.287	-94.851
-0.284	-94.321
-0.278	-93.791
-0.275	-92.731
-0.276	-93.261
-0.273	-92.731
-0.261	-91.671
-0.266	-91.671
-0.263	-91.142
-0.263	-91.142
-0.253	-90.612
-0.255	-90.082
-0.252	-90.082
-0.253	-89.552
-0.249	-89.552
-0.243	-89.022
-0.243	-89.022
-0.247	-89.022
-0.234	-89.022
-0.229	-87.432
-0.234	-87.432
-0.231	-87.432
-0.221	-86.373
-0.218	-85.843
-0.229	-85.843
-0.217	-85.843
-0.220	-85.313
-0.226	-85.843
-0.215	-85.843
-0.221	-84.783
-0.208	-84.253
-0.209	-83.723
-0.208	-82.663
-0.197	-83.193
-0.192	-82.133
-0.194	-81.074
-0.177	-80.014
-0.177	-79.484
-0.171	-77.364
-0.162	-76.834
-0.157	-75.245
-0.148	-73.655
-0.144	-73.125
-0.137	-72.595
-0.134	-71.006
-0.128	-70.476
-0.131	-69.946
-0.115	-68.356
-0.110	-66.767
-0.101	-66.237
-0.099	-64.647
-0.096	-64.117
-0.089	-63.587
-0.093	-62.527
-0.090	-61.997
-0.082	-61.997
-0.082	-60.408
-0.069	-59.878
-0.078	-59.348
-0.067	-58.288
-0.069	-57.758
-0.058	-56.699
-0.050	-55.639
-0.061	-55.639
-0.053	-55.109
-0.047	-53.519
-0.040	-52.989
-0.043	-51.930
-0.032	-50.340
-0.024	-49.280
-0.023	-48.750
-0.021	-47.160
-0.018	-46.631
-0.017	-45.571
-0.005	-44.511
-0.005	-43.451
0.005	-42.921
0.006	-42.391
0.003	-41.862
-0.000	-41.862
0.005	-41.862
0.005	-41.862
0.002	-41.862
0.002	-41.862
-0.000	-41.862
0.005	-41.862
-0.002	-41.862
0.002	-41.862
-0.000	-42.391
0.002	-41.862
0.006	-41.862
-0.005	-41.862
0.006	-41.862
0.002	-41.332
-0.000	-41.862
-0.002	-41.332
0.005	-41.862
-0.002	-41.862
-0.000	-41.862
-0.003	-42.391
0.005	-41.862
-0.002	-42.391
0.003	-41.862
-0.002	-41.862
-0.002	-41.862
-0.003	-41.332
0.003	-41.862
-0.000	-41.862
0.006	-41.862
-0.002	-41.332
-0.000	-41.862
-0.002	-41.862
0.006	-41.862
-0.005	-41.862
0.005	-41.862
0.006	-41.862
-0.000	-41.862
0.002	-41.862
-0.005	-41.332
0.006	-41.862
0.005	-41.332
0.002	-40.802
0.014	-40.272
0.006	-40.272
0.014	-39.742
0.018	-38.152
0.021	-37.622
0.023	-37.093
0.027	-35.503
0.026	-34.973
0.032	-34.443
0.027	-34.443
0.032	-33.913
0.037	-33.913
0.037	-33.383
0.037	-32.323
0.046	-31.794
0.043	-31.264
0.050	-30.734
0.046	-30.204
0.052	-29.144
0.060	-28.084
0.060	-28.084
0.060	-26.495
0.057	-26.495
0.064	-25.965
0.075	-24.905
0.073	-24.375
0.075	-22.785
0.073	-22.785
0.076	-22.256
0.078	-22.256
0.082	-22.256
0.081	-20.666
0.084	-19.606
0.089	-19.076
0.095	-18.546
0.093	-16.957
0.099	-16.427
0.099	-16.427
0.102	-15.367
0.111	-13.777
0.107	-13.777
0.111	-13.247
0.121	-11.658
0.111	-10.598
0.115	-10.598
0.131	-9.008
0.127	-7.948
0.127	-6.889
0.136	-6.889
0.136	-5.829
0.140	-4.769
0.137	-4.239
0.140	-4.239
0.156	-2.649
0.153	-1.060
0.156	-0.000
0.163	1.060
0.165	2.120
0.163	2.649
0.180	4.239
0.177	6.359
0.185	7.948
0.188	7.948
0.185	7.948
0.183	7.948
0.189	8.478
0.189	9.538
0.197	10.598
0.195	11.658
0.214	13.247
0.221	15.367
0.215	16.427
0.221	18.016
0.234	19.076
0.238	20.136
0.234	21.196
0.246	22.256
0.241	23.315
0.253	24.375
0.252	25.435
0.255	26.495
0.264	29.144
0.272	30.204
0.283	32.323
0.295	33.913
0.289	34.443
0.296	36.563
0.298	37.622
0.313	39.212
0.305	39.742
0.310	40.272
0.318	41.862
0.325	43.981
0.325	45.041
0.334	45.041
0.339	48.220
0.350	48.750
0.348	48.750
0.345	48.750
0.353	49.280
0.342	48.750
0.345	49.280
0.342	48.750
0.342	48.750
0.348	49.280
0.342	49.280
0.350	49.280
0.339	49.280
0.342	49.280
0.347	49.280
0.342	49.280
0.353	49.280
0.347	49.280
0.345	49.280
0.356	50.340
0.354	50.870
0.368	53.519
0.385	55.639
0.399	59.348
0.408	63.057
0.411	64.117
0.417	64.647
0.423	66.237
0.432	67.826
0.438	69.946
0.460	72.595
0.460	74.185
0.481	76.834
0.481	78.954
0.498	81.074
0.502	83.193
0.512	83.193
0.515	85.313
0.534	86.373
0.538	89.022
0.538	89.022
0.531	89.022
0.551	90.082
0.553	91.671
0.573	93.261
0.585	95.911
0.585	96.441
0.586	98.030
0.597	99.090
0.600	100.680
0.602	100.680
0.606	100.680
0.599	100.680
0.609	100.680
0.623	102.799
0.628	104.919
0.646	105.449
0.657	107.568
0.664	109.158
0.681	110.748
0.686	112.867
0.706	114.987
0.704	114.987
0.716	116.047
0.731	118.696
0.741	119.756
0.754	122.405
0.759	122.935
0.776	123.995
0.793	126.644
0.803	128.234
0.809	128.764
0.832	130.884
0.840	131.943
0.844	133.003
0.851	134.063
0.878	135.123
0.880	136.182
0.872	136.182
0.869	136.712
0.875	136.712
0.901	138.302
0.904	139.362
0.906	139.362
0.930	142.011
0.939	142.541
0.945	143.601
0.965	145.191
0.979	146.780
1.003	148.370
0.997	148.900
1.017	149.960
1.031	151.020
1.032	152.609
1.055	154.199
1.057	154.729
1.064	154.729
1.061	155.259
1.063	155.259
1.066	154.729
1.064	154.729
1.058	154.729
1.063	154.729
1.063	155.259
1.066	154.729
1.063	154.729
1.063	155.259
1.070	155.259
1.064	155.259
1.063	154.729
1.069	154.729
1.067	155.259
1.066	154.729
1.066	155.259
1.064	154.729
1.066	154.729
1.064	154.729
1.072	155.259
1.070	155.259
1.058	155.259
1.067	155.259
1.063	155.259
1.070	154.729
1.070	155.259
1.058	155.259
1.064	154.729
1.064	155.259
1.060	154.729
