Current	Flux density B
I/A	B/mT

0.002	2.120
-0.002	2.649
-0.008	2.649
0.005	2.120
-0.006	2.649
0.000	2.649
-0.005	2.649
-0.008	2.649
0.003	2.649
0.003	2.649
0.009	4.769
0.006	4.239
0.012	5.299
0.020	6.889
0.026	8.478
0.034	10.598
0.027	10.598
0.027	10.598
0.031	11.658
0.037	15.367
0.031	16.427
0.047	17.486
0.050	16.957
0.037	16.957
0.046	19.606
0.050	21.196
0.050	21.726
0.061	23.845
0.049	23.845
0.055	25.965
0.067	25.965
0.060	26.495
0.060	29.144
0.075	29.674
0.079	32.853
0.078	32.853
0.078	32.853
0.072	33.383
0.076	33.383
0.070	33.383
0.076	32.853
0.076	32.853
0.069	33.383
0.073	33.383
0.078	33.383
0.075	32.853
0.073	33.383
0.079	34.443
0.089	40.272
0.096	47.690
0.116	53.519
0.130	59.878
0.151	73.125
0.162	79.484
0.163	84.253
0.171	90.082
0.191	101.739
0.208	107.038
0.215	113.927
0.212	118.696
0.221	122.935
0.226	124.525
0.229	126.115
0.232	128.234
0.241	130.884
0.257	140.422
0.272	145.191
0.270	148.900
0.276	156.848
0.293	162.677
0.304	170.626
0.305	171.685
0.302	171.685
0.302	171.685
0.318	178.044
0.328	185.992
0.324	186.522
0.327	190.761
0.341	192.881
0.345	198.180
0.360	204.009
0.362	209.838
0.363	210.897
0.370	211.427
0.377	217.786
0.382	223.615
0.400	227.854
0.396	230.503
0.396	231.033
0.406	233.683
0.402	234.213
0.412	238.452
0.409	239.512
0.425	242.161
0.418	243.221
0.431	250.109
0.428	251.699
0.429	251.699
0.437	251.699
0.426	251.699
0.428	251.699
0.435	251.699
0.431	251.699
0.423	251.699
0.435	251.699
0.440	254.349
0.446	261.237
0.449	261.237
0.447	263.357
0.460	269.186
0.469	275.544
0.466	276.074
0.476	280.313
0.496	287.732
0.487	289.322
0.493	289.322
0.495	291.971
0.496	293.031
0.496	293.031
0.515	297.270
0.516	299.919
0.510	303.629
0.512	304.159
0.519	304.688
0.519	305.748
0.521	306.278
0.521	306.808
0.525	309.458
0.533	308.928
0.534	313.697
0.531	314.756
0.541	314.756
0.550	320.585
0.542	320.585
0.545	320.585
0.547	321.115
0.553	323.765
0.554	324.295
0.553	328.004
0.556	327.474
0.562	327.474
0.553	327.474
0.551	327.474
0.571	331.183
0.576	334.362
0.565	335.422
0.573	337.542
0.582	338.602
0.573	339.661
0.579	342.311
0.580	343.371
0.580	343.901
0.599	346.550
0.596	349.729
0.589	349.729
0.602	350.789
0.602	351.849
0.603	351.849
0.596	351.849
0.600	352.909
0.594	352.909
0.599	353.439
0.608	356.618
0.611	356.618
0.609	357.148
0.603	356.618
0.608	357.148
0.611	359.267
0.612	359.797
0.615	359.797
0.617	359.267
0.625	361.387
0.628	371.455
0.637	371.985
0.640	371.455
0.629	371.985
0.635	371.985
0.652	377.284
0.655	379.933
0.655	383.113
0.666	391.061
0.675	391.061
0.672	392.121
0.672	393.181
0.676	393.711
0.687	400.599
0.702	405.898
0.699	405.898
0.696	406.958
0.702	408.018
0.704	407.488
0.701	408.018
0.716	412.787
0.722	416.496
0.718	416.496
0.724	416.496
0.715	416.496
0.724	420.205
0.733	420.205
0.739	424.444
0.741	428.154
0.751	429.213
0.736	429.213
0.754	432.393
0.753	435.042
0.754	435.572
0.751	435.572
0.757	435.572
0.762	435.572
0.757	436.102
0.760	436.102
0.748	435.572
0.762	436.632
0.771	444.050
0.786	447.760
0.779	447.760
0.794	451.469
0.797	455.708
0.806	457.298
0.808	461.007
0.809	461.537
0.815	464.716
0.817	465.246
0.822	465.246
0.831	468.955
0.822	470.015
0.829	470.015
0.829	471.075
0.829	471.075
0.826	470.545
0.829	471.075
0.826	471.075
0.823	471.075
0.831	471.075
0.831	471.075
0.826	471.075
0.831	471.075
0.834	471.075
0.831	473.194
0.851	477.434
0.852	480.083
0.852	480.613
0.855	483.262
0.861	484.322
0.863	485.912
0.869	485.912
0.864	488.561
0.864	489.091
0.873	489.621
0.878	489.621
0.866	489.621
0.875	489.621
0.870	489.621
0.873	489.621
0.870	489.091
0.864	489.621
0.872	489.621
0.867	489.621
0.877	489.621
0.867	489.621
0.870	490.151
0.867	489.621
0.869	489.621
0.870	489.621
0.880	492.800
0.899	500.749
0.901	504.458
0.924	509.227
0.932	515.056
0.942	520.885
0.953	525.124
0.962	527.244
0.967	529.893
0.965	530.953
0.968	533.602
0.982	537.841
0.988	538.371
0.999	539.961
0.996	544.730
1.008	546.850
1.026	553.208
1.032	555.858
1.028	556.388
1.034	556.918
1.029	557.447
1.052	560.627
1.052	566.456
1.080	574.934
1.087	577.053
1.077	577.053
1.081	576.524
1.089	577.053
1.081	577.053
1.090	577.583
1.080	577.583
1.089	578.113
1.084	578.113
1.092	578.113
1.078	578.643
1.083	578.113
1.083	578.113
1.078	578.643
1.092	578.643
1.084	578.113
1.084	578.113
1.081	578.643
1.080	578.643
1.084	578.643
1.083	578.643
1.089	578.643
1.083	578.643
1.090	578.113
1.086	578.643
1.081	578.643
1.086	578.643
1.087	578.643
1.083	578.643
1.087	578.643
1.081	578.643
1.089	578.643
1.086	578.643
1.084	578.643
1.084	578.643
1.089	578.643
1.077	578.113
1.063	577.053
1.067	575.464
1.055	574.404
1.029	571.225
1.028	568.045
1.012	566.456
0.997	563.806
0.982	561.687
0.974	558.507
0.971	557.977
0.974	557.977
0.967	558.507
0.961	556.388
0.959	552.148
0.944	551.619
0.950	551.619
0.959	552.678
0.948	551.089
0.930	548.439
0.924	546.850
0.921	542.610
0.895	539.431
0.883	534.662
0.884	532.013
0.887	531.483
0.886	532.013
0.901	533.602
0.913	536.782
0.928	538.371
0.916	540.491
0.906	536.252
0.899	535.722
0.927	538.371
0.921	539.431
0.925	539.431
0.932	539.431
0.919	539.431
0.932	539.431
0.881	533.072
0.863	527.773
0.819	514.526
0.799	502.868
0.760	492.800
0.747	481.143
0.718	468.955
0.699	461.007
0.699	458.357
0.692	455.178
0.693	455.708
0.690	455.178
0.692	454.648
0.657	440.341
0.646	434.512
0.640	430.803
0.632	422.855
0.614	415.966
0.605	412.787
0.589	408.018
0.602	405.368
0.593	405.368
0.596	404.838
0.597	403.778
0.594	400.069
0.585	398.480
0.577	397.950
0.583	396.360
0.583	394.770
0.573	393.711
0.577	393.711
0.576	393.181
0.573	393.711
0.560	390.001
0.530	369.335
0.501	356.618
0.504	349.729
0.492	346.550
0.486	343.371
0.480	335.952
0.469	331.713
0.457	323.765
0.452	317.936
0.446	314.227
0.438	310.517
0.431	304.159
0.425	304.159
0.429	305.748
0.434	305.748
0.434	305.218
0.438	305.748
0.431	305.218
0.429	303.629
0.418	301.509
0.418	298.860
0.411	293.561
0.397	290.381
0.385	282.433
0.386	276.604
0.373	268.656
0.368	264.417
0.354	262.297
0.359	261.237
0.362	260.177
0.359	260.177
0.359	260.177
0.354	259.648
0.356	259.648
0.362	260.177
0.360	259.118
0.353	259.648
0.360	260.177
0.359	259.648
0.321	241.631
0.298	227.324
0.287	217.256
0.252	200.300
0.240	189.702
0.220	175.395
0.208	169.036
0.182	149.960
0.170	145.191
0.174	145.721
0.185	145.721
0.179	145.191
0.177	145.191
0.174	145.191
0.171	145.191
0.174	145.191
0.157	144.131
0.131	116.047
0.110	107.038
0.075	87.962
0.029	61.468
0.024	52.989
0.024	47.690
0.009	45.041
0.005	37.093
-0.005	34.443
-0.005	33.913
0.002	33.913
0.003	33.913
0.005	33.913
-0.003	33.913
0.002	33.913
-0.006	33.913
-0.009	33.913
0.005	33.913
-0.002	33.913
0.005	33.913
-0.002	33.913
-0.003	33.913
-0.002	33.913
-0.006	33.913
-0.005	33.913
-0.002	33.913
-0.002	33.383
-0.003	33.913
-0.003	33.913
0.002	33.913
-0.008	33.913
-0.006	33.383
-0.006	33.383
-0.008	33.383
0.005	33.383
-0.005	33.383
-0.005	33.383
0.003	33.383
-0.005	32.853
-0.002	33.913
-0.003	33.383
-0.003	33.383
-0.002	33.913
-0.003	32.853
-0.008	31.264
-0.014	29.144
-0.006	25.435
-0.020	24.375
-0.029	19.076
-0.034	14.307
-0.029	12.717
-0.029	11.658
-0.034	10.068
-0.038	7.948
-0.049	6.889
-0.049	3.709
-0.046	1.590
-0.052	1.060
-0.058	-1.590
-0.069	-4.769
-0.060	-5.299
-0.064	-4.769
-0.063	-5.299
-0.061	-5.299
-0.058	-5.299
-0.063	-4.769
-0.067	-5.299
-0.066	-5.299
-0.061	-6.889
-0.072	-9.538
-0.078	-14.307
-0.086	-18.546
-0.087	-19.076
-0.084	-19.606
-0.090	-20.666
-0.101	-23.845
-0.095	-27.025
-0.104	-29.674
-0.110	-33.383
-0.119	-36.033
-0.131	-40.272
-0.131	-45.571
-0.139	-51.930
-0.150	-53.519
-0.145	-55.639
-0.145	-57.758
-0.170	-64.117
-0.162	-65.707
-0.162	-65.707
-0.160	-65.707
-0.163	-65.707
-0.166	-65.707
-0.176	-73.125
-0.183	-78.954
-0.188	-80.544
-0.197	-86.373
-0.197	-87.432
-0.203	-93.261
-0.214	-98.030
-0.215	-99.620
-0.211	-102.269
-0.223	-105.449
-0.226	-105.979
-0.226	-109.688
-0.231	-110.748
-0.224	-110.748
-0.237	-113.927
-0.234	-118.166
-0.249	-119.756
-0.249	-120.816
-0.252	-122.935
-0.257	-127.704
-0.255	-129.294
-0.263	-128.764
-0.257	-129.294
-0.263	-129.824
-0.250	-128.764
-0.257	-129.824
-0.264	-130.354
-0.273	-134.593
-0.279	-139.892
-0.293	-147.840
-0.293	-150.490
-0.305	-155.259
-0.302	-156.848
-0.304	-157.378
-0.307	-161.617
-0.312	-162.147
-0.308	-162.677
-0.312	-162.677
-0.308	-162.677
-0.315	-164.267
-0.337	-171.685
-0.331	-178.574
-0.336	-179.104
-0.337	-178.574
-0.344	-178.574
-0.334	-180.694
-0.342	-181.223
-0.350	-181.753
-0.341	-181.223
-0.341	-182.283
-0.350	-183.873
-0.344	-183.873
-0.341	-184.403
-0.348	-184.403
-0.356	-189.702
-0.373	-195.001
-0.370	-198.180
-0.365	-199.770
-0.373	-199.770
-0.374	-199.770
-0.376	-199.770
-0.366	-199.770
-0.368	-199.770
-0.374	-199.770
-0.385	-202.949
-0.386	-208.248
-0.399	-211.957
-0.400	-215.137
-0.397	-217.786
-0.402	-219.376
-0.408	-220.435
-0.411	-220.965
-0.420	-225.734
-0.421	-226.794
-0.412	-226.794
-0.414	-226.794
-0.415	-226.794
-0.412	-226.794
-0.412	-227.324
-0.420	-226.794
-0.412	-226.794
-0.415	-227.854
-0.429	-237.922
-0.452	-247.460
-0.464	-253.819
-0.478	-261.237
-0.469	-262.827
-0.486	-266.006
-0.484	-266.006
-0.472	-266.536
-0.492	-268.126
-0.493	-275.014
-0.501	-274.485
-0.493	-275.014
-0.490	-275.544
-0.501	-275.544
-0.496	-275.544
-0.495	-275.544
-0.501	-278.724
-0.501	-281.373
-0.501	-282.433
-0.469	-282.963
-0.515	-289.322
-0.518	-291.971
-0.530	-292.501
-0.518	-292.501
-0.531	-295.150
-0.533	-297.270
-0.530	-299.390
-0.539	-299.390
-0.544	-302.569
-0.542	-302.039
-0.544	-302.039
-0.545	-302.569
-0.533	-303.099
-0.544	-305.218
-0.547	-305.748
-0.547	-306.808
-0.554	-308.398
-0.556	-310.517
-0.550	-311.577
-0.554	-310.517
-0.562	-312.637
-0.556	-312.637
-0.563	-312.637
-0.560	-313.697
-0.559	-314.227
-0.560	-314.227
-0.554	-315.286
-0.586	-325.354
-0.583	-328.004
-0.596	-333.833
-0.594	-336.482
-0.608	-343.371
-0.615	-345.490
-0.631	-352.909
-0.622	-353.439
-0.625	-353.439
-0.631	-353.439
-0.626	-353.969
-0.622	-353.439
-0.637	-353.969
-0.646	-364.036
-0.638	-364.566
-0.644	-364.566
-0.649	-364.566
-0.649	-366.686
-0.654	-369.335
-0.646	-369.335
-0.663	-369.335
-0.661	-369.335
-0.658	-369.335
-0.651	-369.335
-0.660	-369.335
-0.655	-369.335
-0.652	-369.335
-0.664	-369.335
-0.661	-369.335
-0.654	-369.865
-0.649	-369.335
-0.652	-369.335
-0.660	-374.104
-0.675	-380.993
-0.684	-386.292
-0.698	-391.591
-0.693	-393.181
-0.701	-397.950
-0.712	-403.778
-0.731	-410.137
-0.736	-415.436
-0.748	-419.145
-0.748	-426.034
-0.767	-430.273
-0.762	-431.333
-0.767	-432.923
-0.774	-435.572
-0.779	-439.281
-0.776	-441.401
-0.785	-441.931
-0.794	-442.991
-0.802	-448.819
-0.805	-452.529
-0.805	-453.059
-0.814	-456.768
-0.822	-458.357
-0.820	-463.126
-0.828	-465.246
-0.843	-471.075
-0.852	-480.083
-0.854	-481.143
-0.852	-481.143
-0.863	-484.322
-0.883	-490.681
-0.887	-498.629
-0.924	-510.287
-0.939	-517.705
-0.941	-523.004
-0.941	-523.534
-0.973	-531.483
-1.009	-552.678
-1.009	-554.268
-1.023	-560.097
-1.031	-561.157
-1.046	-566.456
-1.055	-573.344
-1.066	-575.994
-1.063	-576.524
-1.067	-575.994
-1.063	-575.994
-1.069	-576.524
-1.060	-576.524
-1.063	-576.524
-1.067	-576.524
-1.066	-576.524
-1.063	-577.053
-1.072	-578.113
-1.063	-579.173
-1.069	-578.643
-1.077	-579.703
-1.072	-579.703
-1.074	-580.233
-1.069	-580.233
-1.077	-580.763
-1.069	-580.763
-1.080	-581.293
-1.070	-580.233
-1.078	-580.763
-1.072	-580.763
-1.066	-580.763
-1.080	-580.763
-1.075	-580.763
-1.067	-580.763
-1.075	-580.763
-1.077	-580.763
-1.066	-580.233
-1.075	-580.763
-1.072	-580.763
-1.078	-580.763
-1.072	-580.763
-1.075	-580.763
-1.074	-580.763
-1.075	-581.293
-1.077	-581.293
-1.070	-581.293
-1.077	-581.293
-1.078	-581.293
-1.067	-581.293
-1.074	-580.763
-1.077	-581.293
-1.081	-581.293
-1.072	-581.293
-1.075	-581.293
-1.080	-581.293
-1.072	-581.293
-1.072	-581.293
-1.075	-581.293
-1.074	-581.293
-1.072	-581.293
-1.077	-581.293
-1.077	-581.293
-1.069	-581.293
-1.074	-581.293
-1.070	-581.293
-1.078	-581.293
-1.067	-581.293
-1.072	-581.293
-1.080	-581.293
-1.067	-581.293
-1.080	-581.293
-1.075	-581.293
-1.074	-581.293
-1.067	-581.293
-1.074	-581.823
-1.077	-581.293
-1.072	-581.293
-1.067	-581.293
-1.075	-581.293
-1.078	-581.823
-1.069	-581.293
-1.072	-581.293
-1.081	-581.293
-1.075	-581.293
-1.037	-577.053
-1.026	-574.934
-1.026	-572.814
-1.005	-569.105
-0.990	-566.456
-0.970	-563.276
-0.964	-560.097
-0.954	-557.447
-0.928	-554.268
-0.915	-550.029
-0.910	-546.320
-0.890	-541.551
-0.872	-536.252
-0.863	-532.542
-0.841	-526.714
-0.837	-522.474
-0.835	-521.415
-0.844	-521.945
-0.837	-521.945
-0.834	-521.945
-0.844	-521.415
-0.832	-520.355
-0.812	-516.116
-0.812	-512.407
-0.805	-508.167
-0.791	-506.048
-0.793	-504.458
-0.791	-502.339
-0.777	-499.689
-0.765	-495.980
-0.767	-494.390
-0.771	-492.271
-0.759	-491.211
-0.760	-491.211
-0.762	-489.621
-0.750	-485.912
-0.750	-485.382
-0.748	-485.382
-0.751	-485.382
-0.721	-476.904
-0.699	-464.716
-0.683	-459.417
-0.675	-453.059
-0.663	-444.580
-0.643	-437.162
-0.622	-427.624
-0.617	-423.914
-0.603	-410.667
-0.594	-408.548
-0.582	-401.129
-0.568	-397.420
-0.574	-395.830
-0.580	-396.360
-0.585	-396.360
-0.567	-395.830
-0.563	-391.591
-0.553	-383.113
-0.544	-379.933
-0.534	-373.575
-0.519	-368.276
-0.515	-364.036
-0.513	-358.208
-0.499	-352.909
-0.496	-351.849
-0.495	-349.199
-0.487	-345.490
-0.486	-345.490
-0.492	-345.490
-0.484	-345.490
-0.493	-345.490
-0.484	-346.020
-0.478	-341.781
-0.458	-328.534
-0.457	-325.354
-0.455	-324.824
-0.447	-322.705
-0.444	-319.525
-0.426	-308.928
-0.420	-303.099
-0.405	-297.800
-0.385	-286.672
-0.385	-280.313
-0.370	-271.835
-0.371	-271.835
-0.365	-271.305
-0.365	-271.305
-0.374	-271.305
-0.363	-270.775
-0.363	-266.536
-0.345	-260.707
-0.339	-253.819
-0.327	-247.990
-0.315	-242.691
-0.325	-241.631
-0.310	-238.982
-0.313	-236.862
-0.318	-236.332
-0.313	-236.332
-0.292	-227.324
-0.276	-215.137
-0.253	-201.889
-0.246	-193.941
-0.231	-183.873
-0.206	-172.215
-0.203	-167.446
-0.191	-159.498
-0.165	-148.370
-0.136	-131.943
-0.124	-116.047
-0.118	-114.457
-0.130	-113.927
-0.116	-113.927
-0.119	-113.927
-0.128	-113.927
-0.116	-113.927
-0.105	-108.098
-0.102	-101.739
-0.095	-93.791
-0.087	-90.612
-0.082	-88.492
-0.073	-86.373
-0.084	-85.843
-0.063	-81.604
-0.069	-80.544
-0.076	-80.544
-0.073	-80.544
-0.064	-80.544
-0.067	-80.544
-0.064	-80.544
-0.064	-80.014
-0.069	-80.544
-0.075	-80.014
-0.073	-80.544
-0.069	-80.014
-0.072	-80.544
-0.075	-80.544
-0.066	-80.544
-0.070	-80.544
-0.067	-80.014
-0.064	-80.014
-0.070	-80.014
-0.073	-80.544
-0.058	-74.715
-0.053	-72.065
-0.044	-66.237
-0.029	-54.579
-0.021	-49.280
-0.005	-42.921
-0.003	-40.272
-0.008	-38.152
-0.006	-37.093
-0.003	-37.622
0.005	-37.093
-0.005	-37.093
-0.005	-37.093
-0.006	-37.093
-0.003	-37.093
0.006	-37.093
-0.005	-37.093
-0.003	-37.093
0.000	-37.093
-0.002	-37.093
-0.003	-36.563
-0.005	-37.093
0.005	-37.093
0.000	-37.093
0.002	-37.093
-0.008	-37.093
-0.003	-37.093
0.005	-37.093
0.000	-37.093
-0.008	-34.443
0.005	-33.913
0.003	-33.913
-0.005	-33.913
-0.002	-33.913
-0.003	-33.913
0.003	-33.913
-0.006	-33.913
-0.003	-33.913
-0.003	-33.913
0.002	-33.913
-0.003	-33.913
0.003	-33.383
-0.006	-33.383
-0.008	-33.383
0.005	-33.913
-0.003	-33.383
-0.002	-33.383
-0.006	-33.383
-0.002	-33.383
0.002	-33.383
-0.002	-33.383
-0.005	-33.913
0.006	-33.383
0.005	-33.383
-0.005	-33.913
0.000	-33.383
0.006	-33.383
-0.006	-33.383
-0.003	-33.383
0.006	-33.383
-0.002	-31.264
0.005	-29.144
0.017	-25.965
0.015	-23.845
0.023	-21.726
0.034	-18.546
0.031	-16.427
0.038	-14.307
0.043	-10.598
0.043	-7.948
0.047	-6.359
0.049	-6.359
0.047	-6.359
0.040	-6.359
0.046	-5.829
0.052	-5.829
0.055	-1.590
0.070	7.419
0.082	14.307
0.099	21.196
0.111	28.084
0.113	34.443
0.130	40.802
0.137	45.571
0.137	47.160
0.150	52.459
0.144	55.109
0.165	59.878
0.166	67.826
0.182	71.006
0.186	74.715
0.191	76.834
0.199	84.253
0.199	84.783
0.195	85.313
0.197	85.843
0.202	85.843
0.203	88.492
0.206	90.612
0.208	93.791
0.208	97.500
0.211	100.680
0.214	103.329
0.223	107.568
0.235	109.158
0.221	109.688
0.229	110.218
0.237	110.748
0.238	113.927
0.235	114.457
0.241	117.636
0.243	119.756
0.253	121.345
0.247	121.345
0.244	122.405
0.255	122.935
0.246	122.935
0.252	123.465
0.246	123.465
0.253	123.465
0.257	123.995
0.253	125.585
0.267	131.943
0.272	136.182
0.278	138.832
0.287	145.721
0.295	150.490
0.302	153.669
0.302	155.789
0.298	156.848
0.308	156.848
0.305	156.848
0.301	156.848
0.305	156.848
0.308	156.848
0.301	156.848
0.312	156.848
0.298	156.318
0.299	156.318
0.302	156.318
0.312	159.498
0.318	161.617
0.308	161.617
0.318	164.267
0.321	167.976
0.327	167.976
0.328	172.745
0.336	173.275
0.339	175.395
0.328	175.924
0.341	178.044
0.341	179.104
0.347	180.694
0.342	182.813
0.347	183.343
0.350	185.463
0.354	186.522
0.350	186.522
0.354	186.522
0.348	186.522
0.360	186.522
0.353	186.522
0.351	186.522
0.351	187.052
0.356	186.522
0.353	186.522
0.359	190.761
0.362	192.881
0.365	196.590
0.382	199.770
0.377	201.889
0.377	205.069
0.392	208.778
0.392	210.368
0.402	213.547
0.394	214.607
0.403	219.376
0.415	224.675
0.420	226.794
0.418	228.914
0.425	231.563
0.432	232.093
0.434	238.452
0.423	241.101
0.426	237.922
0.429	237.922
0.426	237.392
0.431	237.922
0.438	240.042
0.443	241.631
0.437	242.691
0.444	242.161
0.447	242.161
0.450	242.691
0.450	246.400
0.452	249.580
0.457	250.639
0.457	252.229
0.463	254.349
0.476	260.177
0.475	261.767
0.480	263.357
0.483	264.947
0.486	264.947
0.475	265.476
0.476	265.476
0.486	267.066
0.486	269.186
0.499	272.365
0.493	275.014
0.505	277.664
0.512	280.843
0.521	287.202
0.519	288.262
0.534	293.031
0.533	295.150
0.541	296.210
0.545	302.039
0.548	305.218
0.554	306.278
0.548	306.278
0.545	306.278
0.551	306.808
0.563	309.458
0.568	314.756
0.568	318.996
0.576	320.585
0.589	324.295
0.580	326.944
0.583	326.944
0.585	326.944
0.580	326.944
0.577	327.474
0.586	327.474
0.589	331.713
0.620	344.430
0.629	355.558
0.647	359.267
0.660	365.626
0.669	373.045
0.673	379.403
0.684	384.172
0.678	384.702
0.683	384.172
0.681	384.702
0.696	386.292
0.704	394.240
0.698	395.300
0.706	397.950
0.713	403.249
0.728	405.368
0.724	405.898
0.721	405.898
0.718	406.428
0.721	405.898
0.725	405.898
0.730	408.018
0.728	410.667
0.744	414.376
0.753	419.145
0.757	426.034
0.774	428.683
0.788	438.222
0.788	443.520
0.799	446.170
0.794	447.230
0.797	447.760
0.799	447.230
0.811	448.289
0.811	454.118
0.820	457.828
0.829	458.887
0.828	462.067
0.828	464.716
0.834	465.776
0.832	467.896
0.834	468.425
0.837	468.425
0.837	468.425
0.844	468.955
0.848	474.254
0.875	485.382
0.886	490.151
0.887	492.271
0.886	492.271
0.889	492.271
0.895	492.271
0.895	497.569
0.919	502.339
0.922	506.048
0.925	509.757
0.939	513.996
0.941	515.586
0.942	515.586
0.936	515.586
0.941	516.116
0.933	516.116
0.942	516.116
0.942	515.586
0.941	518.235
0.948	521.945
0.948	522.474
0.965	528.303
0.986	535.192
0.974	536.252
0.977	535.722
0.986	536.252
0.979	536.252
0.976	535.722
0.980	535.722
0.988	535.722
0.985	536.252
0.997	540.491
1.000	545.790
1.023	551.089
1.046	560.627
1.055	568.575
1.072	570.695
1.072	572.814
1.069	573.874
1.066	573.874
1.078	573.344
1.075	573.874
1.064	573.874
1.077	573.344
1.074	573.874
1.066	574.404
1.061	573.344
1.066	572.814
1.060	573.344
1.064	573.344
1.061	573.344
1.060	573.344
1.066	573.344
1.064	573.344
1.066	573.344
1.063	573.344
1.066	573.344
1.067	573.344
1.067	573.344
1.061	573.344
1.066	573.344
1.069	573.344
1.064	573.344
1.060	573.344
1.066	573.344
1.066	573.344
1.069	573.344
1.064	573.344
1.063	573.344
1.066	573.344
1.066	573.344
