Voltage U	Current I	Voltage U2
U/mV	I/mA	U2/mV

0	0.91	9
15	0.94	12
30	1.00	14
45	1.11	17
60	1.25	22
75	1.45	29
90	1.66	38
105	1.91	48
120	2.17	58
135	2.44	71
150	2.69	84
165	2.93	97
180	3.15	113
195	3.36	127
210	3.56	142
225	3.74	156
240	3.92	171
255	4.08	185
270	4.23	200
285	4.37	215
300	4.50	230
315	4.63	245
330	4.75	259
345	4.86	274
360	4.97	289
375	5.06	304
390	5.16	318
405	5.25	334
420	5.34	348
435	5.42	362
450	5.50	377
465	5.59	392
480	5.68	408
495	5.77	424
510	5.85	438
525	5.93	452
540	6.01	467
555	6.09	482
570	6.17	497
585	6.25	512
600	6.33	527
615	6.41	542
630	6.49	556
645	6.57	569
660	6.65	586
675	6.73	602
690	6.81	617
705	6.89	634
720	6.97	649
735	7.05	664
750	7.13	678
765	7.21	695
780	7.29	710
795	7.37	725
810	7.45	740
825	7.53	756
840	7.61	769
855	7.69	782
870	7.76	796
885	7.83	812
900	7.90	828
915	7.97	842
930	8.04	857
945	8.11	871
960	8.17	884
975	8.23	900
990	8.29	915
1005	8.35	930
1020	8.41	945
1035	8.47	959
1050	8.53	973
1065	8.57	989
1080	8.60	1003
1095	8.61	1017
1110	8.61	1032
1125	8.61	1046
1140	8.62	1062
1155	8.62	1078
1170	8.63	1093
1185	8.63	1109
1200	8.63	1124
1215	8.64	1139
1230	8.64	1156
1245	8.65	1170
1260	8.65	1186
1275	8.65	1201
1290	8.66	1214
1305	8.66	1230
1320	8.66	1245
1335	8.67	1259
1350	8.67	1275
1365	8.68	1287
1380	8.68	1301
1395	8.68	1317
1410	8.69	1331
1425	8.69	1347
1440	8.70	1364
1455	8.70	1377
1470	8.70	1393
1485	8.71	1407
1500	8.71	1421
1515	8.71	1437
1530	8.72	1452
1545	8.72	1466
1560	8.73	1482
1575	8.73	1497
1590	8.73	1509
1605	8.74	1523
1620	8.74	1536
1635	8.74	1552
1665	8.75	1583
1680	8.75	1598
1695	8.76	1613
1710	8.76	1628
1725	8.77	1642
1740	8.77	1660
1755	8.77	1676
1770	8.78	1692
1785	8.78	1709
1800	8.78	1724
1815	8.79	1736
1830	8.79	1752
1845	8.79	1768
1860	8.80	1785
1875	8.80	1799
1890	8.81	1813
1905	8.81	1827
1920	8.81	1842
1935	8.82	1855
1950	8.82	1870
1965	8.82	1887
1980	8.83	1900
1995	8.83	1914
2010	8.84	1926
2025	8.84	1942
2040	8.84	1957
2055	8.85	1973
2085	8.85	2002
2100	8.86	2016
2115	8.86	2030
2130	8.86	2046
2145	8.87	2061
2160	8.87	2076
2175	8.87	2091
2190	8.88	2106
2205	8.88	2121
2220	8.89	2136
2235	8.89	2150
2250	8.89	2166
2265	8.90	2180
2280	8.90	2195
2295	8.90	2209
2310	8.91	2224
2325	8.91	2238
2340	8.92	2254
2355	8.92	2269
2385	8.93	2299
2400	8.93	2313
2415	8.93	2328
2430	8.94	2343
2445	8.94	2358
2460	8.94	2373
2475	8.95	2390
2490	8.95	2405