Voltage U	Current I	Voltage U2
U/mV	I/mA	U2/mV

0	1.06	11
15	1.18	12
30	1.34	15
45	1.62	20
60	2.03	24
75	2.52	30
90	3.00	38
105	3.56	46
120	4.15	55
135	4.76	65
150	5.34	78
165	5.91	89
180	6.45	103
195	6.95	114
210	7.41	127
225	7.84	140
240	8.23	153
255	8.59	167
270	8.92	181
285	9.23	195
300	9.52	210
315	9.79	225
330	10.04	238
345	10.26	252
360	10.48	266
375	10.68	281
390	10.87	296
405	11.05	309
420	11.22	326
435	11.38	340
450	11.53	355
465	11.68	370
480	11.81	386
495	11.93	401
510	12.15	416
525	12.36	430
540	12.57	445
555	12.78	460
570	12.98	474
585	13.18	489
600	13.37	503
615	13.56	517
630	13.74	531
645	13.92	546
660	14.10	560
675	14.27	574
690	14.44	589
705	14.60	604
720	14.76	619
735	14.92	636
750	15.07	651
765	15.22	666
780	15.36	681
795	15.50	696
810	15.63	712
825	15.76	727
840	15.89	742
855	16.01	757
870	16.13	772
885	16.24	785
900	16.35	800
915	16.45	815
930	16.55	829
945	16.63	845
960	16.69	859
975	16.74	875
990	16.77	891
1005	16.78	905
1020	16.78	920
1035	16.79	935
1050	16.79	951
1065	16.83	965
1080	16.85	981
1095	16.85	995
1110	16.86	1010
1125	16.86	1025
1155	16.87	1055
1170	16.87	1070
1185	16.87	1085
1200	16.88	1099
1215	16.88	1116
1230	16.88	1131
1245	16.89	1145
1260	16.89	1159
1275	16.89	1174
1290	16.90	1189
1305	16.90	1203
1320	16.90	1218
1335	16.91	1233
1350	16.91	1248
1365	16.91	1263
1380	16.92	1277
1395	16.92	1292
1410	16.92	1307
1425	16.93	1321
1440	16.93	1336
1455	16.93	1352
1470	16.94	1366
1485	16.94	1380
1500	16.94	1396
1515	16.95	1411
1530	16.95	1426
1545	16.95	1441
1560	16.95	1456
1575	16.96	1471
1590	16.96	1485
1605	16.96	1501
1620	16.97	1517
1635	16.97	1533
1650	16.97	1547
1665	16.98	1561
1680	16.98	1575
1695	16.98	1590
1710	16.99	1604
1725	16.99	1619
1740	16.99	1635
1755	17.00	1649
1770	17.00	1665
1785	17.00	1680
1800	17.01	1695
1815	17.01	1709
1830	17.01	1725
1845	17.02	1740
1860	17.02	1756
1875	17.02	1771
1890	17.03	1785
1905	17.03	1799
1920	17.03	1812
1935	17.04	1827
1950	17.04	1841
1965	17.04	1857
1980	17.05	1871
1995	17.05	1886
2010	17.05	1902
2025	17.06	1917
2040	17.06	1932
2055	17.06	1948
2070	17.07	1963
2085	17.08	1978
2100	17.08	1992
2115	17.09	2006
2130	17.10	2021
2145	17.11	2038
2160	17.11	2052
2175	17.12	2068
2190	17.13	2082
2205	17.13	2097
2220	17.14	2112
2235	17.15	2125
2250	17.15	2142
2265	17.16	2158
2280	17.17	2173
2295	17.18	2186
2310	17.18	2200
2325	17.19	2214
2340	17.20	2228
2355	17.20	2245
2370	17.21	2260
2385	17.22	2274
2400	17.23	2289
2415	17.23	2302
2430	17.24	2318
2445	17.25	2332
2460	17.26	2347
2475	17.27	2363
2490	17.27	2377